timestamps,eeg_1,eeg_2,eeg_3,eeg_4
1731144240.3010662,691.8968751295438,801.5750498262393,786.4455946412237,689.6568852467578
1731144240.3049667,590.5403578223257,795.2676395263618,790.8284180190958,608.6184121668587
1731144240.308868,517.556422474592,790.05337389729,796.916012039648,545.5933928601639
1731144240.3127687,484.43362721022567,786.3977637465492,804.763040556428,509.2284160985519
1731144240.3131835,480.51268870572994,784.2046964057137,812.1489122991122,495.0230398311732
1731144240.31444,482.60189255997864,783.4497434688923,815.5562511733268,489.2952212267123
1731144240.3166697,471.90042266390554,784.548199797739,812.3922353640166,478.08922647554084
1731144240.3205705,445.6697053624503,787.8873949275787,803.0553118407079,455.1612497700301
1731144240.3244717,415.7946625855386,792.9464879337405,791.2027313230753,424.2038492410038
1731144240.3283722,397.0173878883357,798.0200193868749,781.7061413503566,394.8213143578531
1731144240.33,395.385238718956,801.0303797729819,777.645325432236,375.9798977616343
1731144240.3320458,405.95208132591824,800.821730947996,778.6333231127194,371.5384574619584
1731144240.3322732,419.8437235719384,797.8547877192455,781.7234504729865,379.8852290232449
1731144240.336174,432.8073368163689,793.8029228083221,783.9475387708744,396.3982434580276
1731144240.3400748,447.2999564286044,790.4978468139136,784.2356972091616,416.15613204272705
1731144240.3439758,467.2315640561655,789.0718541747092,783.2772491641671,435.38639123886634
1731144240.34556,491.4172615944618,789.7700619556899,781.9271401970855,451.79895873379445
1731144240.3478763,512.3533004165826,792.2538119913334,780.0268075302282,464.58946017449836
1731144240.350124,521.5260552577674,795.9066873546701,776.8506511487044,474.46371735790405
1731144240.350908,516.6546442997062,799.9010265553802,772.5699335103699,483.51362453360554
1731144240.3517776,504.8159621135425,803.2450017094552,768.9808471196588,494.7686313684897
1731144240.3556783,498.6830774135155,805.1386975428019,768.4171988797689,511.48401876419985
1731144240.359579,508.2464828415324,805.5329595749395,771.6393108376317,536.2460810380671
1731144240.36112,533.8931447689047,805.2978192500284,776.7201015074245,569.8691908058245
1731144240.36348,566.1621994322742,805.5546783642152,780.2196049467141,610.29233018676
1731144240.3673809,592.7969521134137,806.540678628456,779.8283218635682,652.2479409960489
1731144240.3697703,607.9586874244907,807.040741577932,776.1961148786438,688.6030812392822
1731144240.371282,616.332576166948,805.1161196978035,772.3256171381782,713.3031215145472
1731144240.3751826,628.6516579988307,799.7203277852752,771.0988666576204,724.3424803758755
1731144240.37668,652.1876667869178,791.8984297059113,773.1351290251752,724.6830562309916
1731144240.3790836,684.1437077403821,784.5180128083354,776.7451266111221,720.3968128115318
1731144240.3829844,713.6730128269993,780.6536813789659,779.753091638994,717.4864890860479
1731144240.385,731.0322990338958,781.7529864763558,781.3307855917615,719.7461130302083
1731144240.3868854,736.1728335325581,786.7546101717263,782.2024006845878,728.723516093212
1731144240.3886328,739.2707787591918,792.5963684436877,783.3051187284077,744.7017730923743
1731144240.3907862,752.382882026674,795.7593820224466,784.4825219750215,766.9186967512215
1731144240.39224,779.0896224538027,794.067558702608,784.6124175757802,792.7123920768768
1731144240.3946872,811.0763736031334,787.8690381093412,782.9936708106044,817.2079340243397
1731144240.398588,834.9953311322427,779.9293709696968,780.4913603986358,835.2187022777858
1731144240.4024887,844.0727324791255,773.9654325228989,779.1927009102807,844.825204005388
1731144240.4063897,844.3957742993985,772.5875438811597,780.8227942799326,849.7257718548597
1731144240.407495,849.9673068998918,775.8940521783876,785.3525544637195,857.5547947249684
1731144240.4078,870.2897414523827,781.5751590649718,790.9951640557093,874.4362235398905
1731144240.4102905,901.0828117120965,786.3641897812435,795.5094720969198,899.6659514798771
1731144240.4141915,926.5231962695613,787.8352873282563,797.6689107923992,925.1572410487943
1731144240.4180925,931.7063196224227,785.4870152582857,797.7700129016722,940.8411609329096
1731144240.419876,915.1117044959814,780.672556304459,796.993909207015,942.1329295149617
1731144240.4219933,890.5145355866144,775.6709547651941,796.3871871782852,933.4231052371111
1731144240.42336,876.5102579370665,772.5489264883801,796.3259300565662,924.6333363414223
1731144240.425894,882.1834830755414,772.3520561102993,796.6468646757182,923.6657047311562
1731144240.4263573,900.6258762332332,774.8366838803236,797.0453787774303,930.9302225239262
1731144240.4297948,915.4334048300084,778.6930342457204,797.3426961843807,940.1713876209778
1731144240.4336958,914.6398847046736,782.1070106776758,797.5246195783509,944.4403666582741
1731144240.4375966,900.5848561947264,783.483415136968,797.6561720259452,941.9753004986325
1731144240.43892,887.7117721936761,782.1187331582472,797.7956763631732,937.2432081647482
1731144240.4414976,890.2655249040469,778.5692973334264,797.9620984399442,936.7182663770067
1731144240.4452195,910.1177585677844,774.4957242038822,798.1456307599977,943.2847260590391
1731144240.4453983,934.7662505832907,771.9636659080595,798.330229785616,953.9472938903571
1731144240.449299,947.1594134054801,772.4985959195352,798.5072029254165,962.4774551872995
1731144240.4532,939.3414736625284,776.3949275185362,798.6764567661172,964.5159694339636
1731144240.45448,918.8883275987059,782.6425781470975,798.8416611355123,960.852225936118
1731144240.4547515,903.039326625397,789.4380093271425,799.0058194960528,956.361918804115
1731144240.457101,905.3192466366315,794.9407901912334,799.169781868324,955.761660579183
1731144240.461002,925.265796705633,797.933377592878,799.3329519487348,959.8503562531674
1731144240.4640818,949.1677374048606,798.1994512443715,799.4944955420426,965.2427413953988
1731144240.4649026,960.9007527597489,796.5343604482455,799.6540087902384,967.4653941768087
1731144240.4688036,954.1036110211978,794.356103849535,799.8115354141878,964.483271801722
1731144240.47004,936.1813057401959,793.0352924772799,799.9672923908054,957.6770546738142
1731144240.4727044,921.4067736577172,793.2689927911476,800.1214427799855,949.8496129480068
1731144240.4766054,919.1671565891306,794.8678652309009,800.2740350064789,942.4914844595974
1731144240.4805062,927.0230052485447,797.084053403432,800.4250570626076,934.8784307074789
1731144240.482944,933.8763581308549,799.2233274993675,800.5745065142801,925.5786858737928
1731144240.4844072,930.046871162046,801.069924859592,800.7224113955866,914.7181798908616
1731144240.4856,915.6125236569391,802.814135062088,800.868793491482,904.853072653573
1731144240.488308,900.2455802955214,804.6021864448829,801.0136141546534,899.6265393678111
1731144240.4896276,894.9814390763947,806.1534798547159,801.1567716938258,901.1720298217673
1731144240.4922087,902.852749440138,806.8109005936734,801.2982061734631,908.1554693040039
1731144240.4961095,916.0909266184374,805.985288575021,801.4380827865073,915.9951604118164
1731144240.5000105,922.2730230958616,803.6147665701699,801.5768831995804,919.4349743336328
1731144240.50116,914.5709356577215,800.279864397051,801.7151514897464,915.968622482228
1731144240.5018065,897.7389063997311,796.915532273322,801.8528105340891,907.6790128809178
1731144240.5039115,884.578984654472,794.3364786780775,801.9884759514155,899.8383982818675
1731144240.5078125,885.2583041783379,792.8654069738405,802.1197621490626,896.9801732382208
1731144240.5117133,898.0899171333209,792.2663258596889,802.2454506426986,899.3838169671219
1731144240.515614,909.8434194518914,792.0160467448685,802.3688378763719,902.8914162310606
1731144240.51672,906.1309800669789,791.7382328614248,802.4989598915195,902.3373580900009
1731144240.519515,883.8095257199218,791.493096359591,802.6450966246338,895.8010778198301
1731144240.5206687,855.0381807921078,791.7164707593491,802.8036285106939,886.1854816875203
1731144240.5234158,838.9823211555499,792.8868582861926,802.946201441719,878.9104489647601
1731144240.5245037,847.1734476937163,795.1936741333461,803.0281228378911,877.685538226574
1731144240.5273166,874.0538139607805,798.4057242246517,803.0315673459423,881.701421719391
1731144240.5312176,900.602387656575,801.9300553327296,803.0267962353707,886.248650349078
1731144240.53228,908.698068356142,804.9557653417344,803.1857868906695,886.0318573543802
1731144240.5351183,895.0069685977465,806.6482428689018,803.6637756734374,878.513022539913
1731144240.539019,873.1076190461947,806.4332893929372,804.3409164697579,864.932185346935
1731144240.539531,861.9340434031955,804.3355378867815,804.5993361487958,848.7929543395777
1731144240.54292,869.9807724009636,801.1616827672407,803.4613927669496,833.5672287805877
1731144240.546821,888.3835606146562,798.2754077504413,800.2573887723352,821.4401809079442
1731144240.54784,898.6030629910313,796.9636956411499,795.4275093741865,813.4005765172357
1731144240.550722,888.2443102261369,797.7832921257723,790.6014932249892,809.776430663369
1731144240.554623,861.9010665752587,800.3829570052361,787.5320257741472,810.5301108749454
1731144240.5583932,838.1745696011303,803.9130816306184,786.6644337969362,815.3929165539249
1731144240.5585237,835.2746292209677,807.6011346776152,786.7707354426852,823.9506003421378
1731144240.559379,856.6067890384056,810.9641176588098,786.1822547143902,835.3296196306575
1731144240.5624244,887.638376399967,813.5810482110984,784.5207841898625,847.4028684291247
1731144240.5634,906.574271671823,814.8616139032806,783.2317270500356,856.4765879259704
1731144240.5663254,900.7136619445178,814.249364791563,784.370172309373,858.6631821129182
1731144240.5702262,875.8170004865008,811.7827453782968,788.7885026069202,852.5902023188003
1731144240.5741272,851.0841696555943,808.4587434379453,795.3593528435156,841.1587308432785
1731144240.5772555,843.7524181253848,805.9141480845682,801.7562131662622,830.2249428844309
1731144240.578028,855.8307355053857,805.5123899563285,805.9133925058183,824.7396777766752
1731144240.57896,873.7356497629532,807.4726411503594,806.9892807435555,825.470030400918
1731144240.581929,880.704050508429,810.7096601751327,805.4384820651117,829.1305089309061
1731144240.5858295,871.1179114794934,813.5338262379458,802.5656808067939,831.695078665299
1731144240.5897305,854.6126050195143,814.7172890924737,799.9836755884893,831.8206721295876
1731144240.5936315,846.9454526892866,814.1838894338235,799.0470983360635,831.3835760439702
1731144240.5942552,855.8692416776634,812.9020527242383,800.2259794298843,832.902086266381
1731144240.59452,874.0676703956964,812.1427219268372,802.6587079334521,836.4271116033649
1731144240.5961175,884.9258243599132,812.6341754875889,804.3659672054448,838.8554254694378
1731144240.5975325,876.2769025615605,814.1055415979749,803.3526998510467,836.3614023938435
1731144240.6014333,850.8474612940653,815.4233056542483,799.0785239087913,827.766216144174
1731144240.605334,824.7091103047624,815.2266169419888,793.1710408465467,815.6887234251075
1731144240.609235,814.6336895408609,812.7533878421683,788.5721195387842,804.2498638642032
1731144240.61008,824.4424749887274,808.4353001512582,787.5536907900994,795.3634834570142
1731144240.6131358,841.6496926841594,803.8789937962252,790.1324649344946,787.1686979569611
1731144240.61498,847.4574534969206,801.1130030861432,794.1791117752484,776.2500031952543
1731144240.6170368,832.0738295850718,801.4289419484501,797.063362131179,761.634553991396
1731144240.6209376,802.7812312981023,804.5308262878947,797.3976840837729,746.7361033859717
1731144240.6248384,778.1106982253464,808.6481206949762,795.5395544245721,737.2302033547038
1731144240.62564,772.8909286502858,811.6332631210668,792.7574328326135,736.5139303938172
1731144240.6287394,786.3163875839539,812.289464345319,790.0758428852546,742.5491369849982
1731144240.6291313,802.5998289568506,810.9703864806281,787.8350313679576,748.8070449955194
1731144240.63264,803.6319205798976,809.091006487955,786.1139396143129,748.8319218369372
1731144240.6338425,783.5894760562027,808.0413553024409,785.2946952763291,741.124731232302
1731144240.6365411,753.8764830498242,808.3488529972915,785.9486943337272,730.5767793860241
1731144240.640442,734.2302821744587,809.5783055553063,787.9570884151669,724.9768143829751
1731144240.6412,736.7599931276736,810.8228986170293,789.7217584709322,728.8405692897945
1731144240.644343,755.7849740464878,811.2946933277699,788.5752667531744,739.339475228402
1731144240.6482437,772.3289063660121,810.6591495417382,782.592277049354,748.0796598267889
1731144240.6521444,770.36024667063,809.093276664411,772.5560077395013,748.0230435629811
1731144240.6527047,751.6042685572772,807.1874669272044,762.2615527871461,740.2329973927295
1731144240.6560454,735.9893433147429,805.700766565026,756.4852283603223,734.4697689894606
1731144240.65676,746.1366061888358,805.1314981583346,757.9605233694509,742.1327398689372
1731144240.6599462,787.6942353506353,805.293018162351,765.6798115824074,766.4022642517717
1731144240.6638472,841.5234823938766,805.3213868719173,775.7858954378175,797.4552884056724
1731144240.6640067,874.9622579745476,804.3285027542596,784.1960265805826,817.4375129114261
1731144240.667748,864.4525960160386,802.2699915633505,788.8594314672144,812.4732546191813
1731144240.671567,812.5893366625004,800.183534749808,790.1849739478272,783.0254891278148
1731144240.671649,746.5626846329111,799.3804188093653,789.8671143112625,744.4299700795191
1731144240.67232,699.1389548946136,800.1897633679148,789.427570776577,716.6288446017921
1731144240.6755495,686.6796040330637,801.4440796588497,789.5155076413677,710.6215284553514
1731144240.6794508,700.6109632910656,801.3240767047243,790.0537666031792,721.9173317346895
1731144240.6833515,717.6856965899283,798.896316687963,790.7188743436483,735.6965461344172
1731144240.6872523,719.4739947882986,794.9553026736687,791.289344693032,738.978158414062
1731144240.68788,705.11902620703,791.3928914746571,791.7277868316995,729.8217028440938
1731144240.6904292,688.2963006695725,789.6717373390154,792.0999087614883,716.7218869771267
1731144240.6911533,682.8286868453092,789.7443628026311,792.474873940487,709.735049083504
1731144240.695054,689.9255669281957,790.2598143363883,792.8801798140356,711.2544933753768
1731144240.6988828,697.339895737977,789.7264860005155,793.3082543379587,713.918228626048
1731144240.6989553,690.271176856384,787.5825424383286,793.7411896060507,706.9381117548767
1731144240.7028558,664.4219893961026,784.401077936206,794.1678263527788,685.3895501627452
1731144240.70344,630.2895643449779,781.2917587189856,794.5868788027148,654.8312053834429
1731144240.7067568,605.113089009403,779.1303701184945,795.0021078122634,627.5270903398538
1731144240.7092917,599.0371146148982,778.1611392865339,795.4170924805062,613.3798656416928
1731144240.7106576,606.976966118096,778.0675715613206,795.8330961574475,612.973966833463
1731144240.7145584,613.2053209596174,778.3071331967109,796.2495959260307,618.3179476094558
1731144240.7184594,605.098597264588,778.5048561999397,796.6656260479568,620.3781611858988
1731144240.719,584.4950515862542,778.7673533856747,797.0806317498603,616.7779327281396
1731144240.72236,566.8172668354823,779.74322944503,797.4945789555723,613.0902288721336
1731144240.7262611,568.4178598193032,782.2636697646865,797.907675636962,616.9594057594446
1731144240.7281537,592.6629188301977,786.6347148973264,798.3201005806399,630.6009667780829
1731144240.730162,626.3375262339581,792.0038894051703,798.7319052704254,648.3958035788576
1731144240.7337587,649.3658478879132,796.3498288720159,799.1430517574851,661.5599500245839
1731144240.734063,650.1145665752706,797.3427172384114,799.5534847610876,665.7418581819217
1731144240.73456,634.3254550885187,793.7259064840488,799.9631717446556,665.0966209928761
1731144240.7379637,620.8248639654146,786.3616189108477,800.3721023137737,669.4029240265324
1731144240.7418647,627.3183337115881,778.0967844055899,800.7802709151861,686.3792216329502
1731144240.7457654,657.1448958239082,772.30142437563,801.1876682827261,715.178189957804
1731144240.747016,697.1593386421902,770.9239276021913,801.5942906072972,746.25117621753
1731144240.7496662,728.2867324269009,773.3965088050444,802.0001548344007,767.915890105226
1731144240.75012,740.3033532116888,777.1824744304806,802.4052949185133,774.7186722521146
1731144240.7535672,739.0659769555125,779.5370565401996,802.8097196720101,771.2501054803453
1731144240.757468,740.644979821433,779.1716617403321,803.2133476564586,768.6749308182484
1731144240.761369,757.5743286474227,776.7104744734643,803.6159872370981,776.8945136231237
1731144240.7652698,788.6926111548165,773.867467146151,804.0174516692433,798.2846439465566
1731144240.76568,820.6144103916062,772.1892523604647,804.4178201333467,827.0999152829467
1731144240.7658784,838.9845858197975,772.2836857528343,804.8176577218599,853.9789419646324
1731144240.7686346,839.8967353918789,773.8400088997244,805.2178196154666,871.6444718194156
1731144240.7691708,832.3233320847412,776.141375438989,805.6185726127286,878.0843027216517
1731144240.7730715,830.046530015808,778.6109905864298,806.0184057867234,876.0686330354346
1731144240.7769723,840.0072638914571,781.0954067623713,806.413847042851,870.317879876208
1731144240.7808733,856.7655736066488,783.7903187911554,806.801886657408,864.6098179706884
1731144240.78124,867.7603756421756,786.8924695494576,807.1849428843731,860.6194409306352
1731144240.7847407,865.0065605897163,790.2423104522065,807.5745230970813,858.8040809621917
1731144240.784774,853.102914136875,793.2724339224543,807.9865273267595,859.9820899129202
1731144240.7886753,846.2032769485377,795.3473781382297,808.4239330931338,865.6767970698992
1731144240.7925758,856.0861074201467,796.2229247116593,808.8552880823754,876.5881393794868
1731144240.7964768,881.5154573384291,796.2369332287236,809.2146984204261,890.7110769624587
1731144240.7968,908.3217870014572,796.1016518640573,809.4517940487988,903.4222392540865
1731144240.8003776,920.4501776170097,796.5061285892581,809.6251787093055,910.2220454366184
1731144240.8035104,912.7601294084038,797.8084076890976,809.9607253411218,910.1760990610586
1731144240.8036027,894.9145961923706,799.9176283925938,810.7418768758745,907.0088111864357
1731144240.8042786,883.2511609693978,802.3204386522925,811.9640711813514,906.4434841256791
1731144240.8081794,887.4519177797866,804.2248821863759,812.9289103487876,911.5162763905478
1731144240.81208,902.9821584004009,804.8324351642129,812.2455123163955,919.6229728610755
1731144240.81236,915.4633799483229,803.673847158244,808.6462189373731,924.0796484741206
1731144240.8159811,913.2928944062829,800.8497296458363,802.2791496452315,919.4219128969112
1731144240.819882,897.8900398615507,797.0505818116967,795.2628341618419,906.3283011158862
1731144240.8224652,882.7896377320641,793.3605609942095,790.5765276525266,891.9499527978364
1731144240.8237827,882.1522844113917,790.9280509599463,789.9581321970586,884.9768867973828
1731144240.8276837,898.3349387173122,790.5811086973275,792.6320601885564,889.103378280059
1731144240.82792,919.1303836207097,792.4781299024409,795.9937826932164,899.987914384895
1731144240.8315847,927.2139094666412,795.9529560623484,797.6125830841454,908.1308027480341
1731144240.8354857,914.1449243984401,799.7240542747982,796.8658097039344,905.5483112333783
1731144240.8383863,887.5629959579685,802.4700852868723,794.9995650735395,891.3245309855828
1731144240.8393862,865.808874776638,803.4955251727422,793.7712749842265,872.0910958748892
1731144240.8413274,864.1663196889754,803.0575516962352,793.8680700141366,857.2717730764102
1731144240.8432872,883.2972918007092,802.0901988507513,794.3324710623215,852.6537076460143
1731144240.84348,908.6482820180358,801.4816459380833,793.4047715169563,856.9147090574498
1731144240.847188,921.2883611813496,801.425721957308,790.1249654409518,863.477036638267
1731144240.851089,911.9561540329611,801.355549105033,785.4261983562437,866.043489285313
1731144240.8549898,887.5100004138179,800.5259512001251,781.7688552503884,863.3301849393762
1731144240.8588908,864.8117114770105,798.7668859587349,781.476298175161,859.2219243622528
1731144240.85904,857.1365851025088,796.7558775911715,785.0013433839832,858.5186943858276
1731144240.8601897,864.2799002233718,795.5491811086943,790.4575563445097,862.2837806029569
1731144240.8627915,874.2553105557114,795.753494235533,794.7770451740956,866.998565626585
1731144240.8666923,874.5687359762222,797.0365744153315,795.6311764792945,868.0847814125193
1731144240.8705933,863.1300870385859,798.3756895145132,792.754917490133,864.3612237620739
1731144240.8732622,849.6318500890029,798.810961222066,787.854013515966,859.3244605226989
1731144240.874494,846.6205086800484,798.0827181166737,783.3252416633596,858.1329976540561
1731144240.8746,858.1301587233849,796.6973850186754,780.7605974576824,862.941512736729
1731144240.8783953,875.5835829962343,795.4702172833929,780.191407053116,870.6090519130216
1731144240.879052,884.5598947759551,794.9685856998999,780.4345058319899,874.8871949522852
1731144240.8822958,877.0454318229883,795.26057157146,780.19867238909,871.5712706292069
1731144240.8861969,858.9902866184923,796.0616192964512,779.1554813638114,862.4993061305004
1731144240.8900976,846.3341083517239,797.0587383565536,778.1804531076011,854.8393065980149
1731144240.89016,851.9713719505565,798.1093910856912,778.5216143943936,855.7545326110522
1731144240.8939986,874.1238015158941,799.1923036864465,780.5168352329708,866.5398485830274
1731144240.8978994,896.2342489163493,800.2478950253361,782.9840810208576,881.126400850598
1731144240.8979144,899.317560824884,801.1311700641425,783.9612940724357,890.4047377802693
1731144240.9018004,877.1454030932489,801.7314289004673,782.3157732787225,888.9779402409101
1731144240.9057012,841.9232424267544,802.0971655499945,778.9001539143092,878.9967992317254
1731144240.90572,815.7594373597317,802.4031739098749,776.2200609886429,868.2540717209616
1731144240.9081378,814.6343945984866,802.8030571732444,776.7649562787827,864.2940503535975
1731144240.909602,837.1942017900567,803.3528612715182,781.2178263195084,869.0525311349566
1731144240.9135027,866.4253034344705,804.0827034541991,787.872500058979,877.6914450951404
1731144240.916777,882.2042693271575,805.0726289189063,793.7264769457191,882.0797230440089
1731144240.9174037,874.8605269389258,806.3530062001707,796.5126248036491,876.3079751866715
1731144240.92128,849.899183321412,807.6792140700977,796.1966677618233,860.4887845369645
1731144240.9213047,821.5680408708863,808.4642045737321,794.7677495042549,840.3273118875715
1731144240.9252057,801.8397220851214,808.0722150789852,794.4222134320825,822.8355467645378
1731144240.9291065,793.9249640985397,806.3008816568006,795.6053831530088,811.3955022008315
1731144240.9330072,793.7462652284793,803.6074562836963,796.6245778699495,804.0225707699736
1731144240.935639,795.4955355030615,800.8238731120432,795.2490798818708,796.1645007676873
1731144240.93684,795.7370768083446,798.6108447044962,790.8959836021917,785.3612250559886
1731144240.936908,794.0249360880442,797.1723735844229,785.3845644641883,773.3141457654076
1731144240.940809,791.4194428258916,796.4564119393004,781.5356835851675,763.6910057030623
1731144240.9430137,788.9471782487631,796.5201365629276,780.9321391507121,758.5434940780964
1731144240.9447098,786.9727224143063,797.567727093679,782.9146907623003,757.0644314835649
1731144240.9486108,785.346351515741,799.5777451865429,785.5427353723113,757.0450886064506
1731144240.9524,783.7902061339921,801.9552172369755,787.2845050354746,756.7657222825446
1731144240.9525115,782.144770979974,803.6757065951967,787.8260318431493,755.6974868655242
1731144240.9545012,780.4010126730103,803.8989574539328,787.6957020319912,754.1233597883725
1731144240.9564126,778.6202126608941,802.5485146015815,787.5114570776468,752.4885424064483
1731144240.960313,776.8555890661376,800.361039602463,787.5623666475592,751.0265771872212
1731144240.9642143,775.1236507706428,798.3661845256321,787.8216240416325,749.7330713828206
1731144240.96796,773.4148233943873,797.2321307349665,788.145391884896,748.5037803909988
1731144240.968115,771.7143148813402,796.9844922588181,788.4300598005753,747.2565807605425
1731144240.972016,770.0143445204388,797.2223584702758,788.6542687246143,745.9701508755826
1731144240.9733634,768.315018547248,797.5234136301407,788.8454401591288,744.6626313276414
1731144240.9759169,766.6197786844407,797.684011213615,789.0348647164849,743.3578045782523
1731144240.9778895,764.931362202477,797.7100362628178,789.2359662682704,742.0670371483005
1731144240.9798176,763.2505067616842,797.6899559276345,789.446118878128,740.7892787313219
1731144240.98352,761.5766449024569,797.6912213960716,789.657455322657,739.5188228605554
1731144240.9837186,759.9090196215301,797.7297048461149,789.8647879705948,738.251554027993
1731144240.9876194,758.2472822687577,797.7890619206505,790.0673395095945,736.9866396816917
1731144240.9915204,756.5914918384601,797.8492719424461,790.2667314813068,735.7252060046188
1731144240.9922256,754.9418566114978,797.9012305739906,790.464621016582,734.4685453400667
1731144240.9954212,753.2985309423605,797.946210174989,790.6616631608828,733.2172462915805
1731144240.99908,751.6615730309136,797.9891468174037,790.8576920257221,731.9712698425662
1731144240.999322,750.0310073002565,798.0334662645201,791.0523135472472,730.7303865319831
1731144241.0032227,748.4068857645464,798.0798036441226,791.2453049038089,729.4944857777554
1731144241.0071237,746.7892765875863,798.127196538723,791.4366793305749,728.2636138904625
1731144241.0110247,745.1781810986628,798.1745957884331,791.6265627122505,727.0378515368908
1731144241.011088,743.573462363225,798.2215689912216,791.8150635459547,725.817214697032
1731144241.0127654,741.9749157791031,798.2682174308168,792.0022250541808,724.6017044288295
1731144241.01464,740.3825519407928,798.3148064683614,792.1880561269819,723.3914963061168
1731144241.0149257,738.7969447997712,798.361503060807,792.3725935369808,722.187092809369
1731144241.0188265,737.2192183223339,798.408322934424,792.555938385038,720.989155918105
1731144241.0227273,735.6502130624028,798.4552016729349,792.7382191341007,719.7978665013401
1731144241.0266285,734.0889606926453,798.5020770682105,792.9194728521412,718.6121412688658
1731144241.0299504,732.5317688358938,798.5489275560652,793.0995201799514,717.4296666805641
1731144241.0302,730.974056467471,798.5957671999703,793.2780014343582,716.2487805157479
1731144241.030529,729.4159194763631,798.6426178146404,793.4547253513639,715.0719094328663
1731144241.0344298,727.8682828983317,798.6894762939338,793.630232935594,713.9076249339249
1731144241.0383308,726.3514740911731,798.7362941297051,793.8060420073878,712.7664957155722
1731144241.0422316,724.8782370626528,798.7829922616264,793.9837955663369,711.6485379754914
1731144241.04576,723.4252406043862,798.8295285739646,794.1630996417682,710.5293631383478
1731144241.0461326,721.9192352770829,798.8759931630275,794.3394557858043,709.3634338966231
1731144241.0476413,720.2774149336509,798.9226359041872,794.5054189650939,708.1223947979381
1731144241.0488126,718.5152141139322,798.9696999641264,794.6575759934823,706.8592997688316
1731144241.050033,716.8542950305653,799.0170460586795,794.8069218327266,705.7397728105191
1731144241.0539343,715.6740028866105,799.0638347470484,794.9820601740574,704.9510954178642
1731144241.057835,715.1692369020499,799.1088044478075,795.2110661345827,704.4599260743361
1731144241.06132,714.8227092552728,799.1515309358892,795.4801002237298,703.7715383039466
1731144241.061736,713.2127646772476,799.1941395920574,795.6981834792373,702.0471385460517
1731144241.0656369,708.8819421269028,799.2415822082002,795.7277822088929,698.8977318301733
1731144241.0676749,702.412851905983,799.2981718074958,795.524868740302,695.6410532745822
1731144241.0695376,698.3016401310429,799.3604483695115,795.3326255046198,695.9412092520062
1731144241.0734386,703.8840427162859,799.411877512585,795.726207580121,704.4901389748585
1731144241.07688,724.0831797356968,799.4295146282508,797.2700403089669,723.8212701418121
1731144241.0773394,755.5213269938155,799.4088026992731,799.8460625579976,751.6241710366792
1731144241.0812404,786.3604092294657,799.3944588200922,802.2802800129327,781.1882266354963
1731144241.0825171,803.9784595381801,799.4804682055006,802.9893372966367,804.9865935114549
1731144241.0851412,804.7232596218587,799.7377265237136,801.3531513783005,818.787271301272
1731144241.0865371,797.1038833163722,800.0770383907363,798.412559273059,823.546574830721
1731144241.0890422,795.0948862826116,800.1562601596771,795.9983240688983,824.1538600713437
1731144241.09244,806.789630316612,799.5109260610657,795.1334223034462,826.1122776533201
1731144241.092943,827.8802716953173,797.9712242813061,795.3582818754478,832.3154194041604
1731144241.0968435,845.6168435328823,796.0816192147794,795.5811483432968,841.8412132460841
1731144241.1007447,850.0322072976236,795.0187752914172,795.4338174810852,851.3666708216115
1731144241.1046455,842.8272954871428,795.8623645696773,795.6645016260735,858.0853457044899
1731144241.1053994,836.1289002448457,798.7384198922183,797.1904161422311,861.884129233579
1731144241.108,842.0463240681534,802.538171525492,799.845370648213,864.9941165231115
1731144241.1085465,862.0122655681602,805.4619515015785,802.154268686737,869.4171552444445
1731144241.1124473,885.1684216112807,806.0671212586574,802.4308578295676,874.5736690711235
1731144241.1163485,897.2588912616803,804.1656577842732,800.2179503714905,877.650926620877
1731144241.117393,892.4313690121479,800.9209416542047,796.7782859760963,876.611982770197
1731144241.120249,877.8914110615333,797.9536338457027,794.1939801817614,873.0146703558585
1731144241.12356,867.5500429255432,796.0565204775994,793.8010051878193,871.6097818862024
1731144241.1241498,870.1788823750264,794.6049004772838,795.183474624385,876.5981069424345
1731144241.1242616,882.120302412749,792.2969479546974,796.4769005977014,887.7346885611028
1731144241.1280508,890.6558429710503,788.6646570224452,795.7515706129967,899.936443472573
1731144241.1319516,885.2031831527452,784.9439371324714,792.4981354389272,907.0787567167786
1731144241.1358526,866.9764388321405,783.3292456604202,788.1746222142931,906.9089061995569
1731144241.13912,848.8998664590025,785.1027571258741,785.389244522203,902.8860684094193
1731144241.139753,845.5025797247347,789.2658563603534,786.2027099147863,901.3128247625273
1731144241.143124,860.8379460658276,792.9747198502355,790.6777814025187,906.0941783381965
1731144241.1436543,884.3553251486014,793.5385642999737,796.7200629963484,915.4295794100145
1731144241.147555,898.4450835389604,790.3841468901493,801.3950817572129,923.1401815649463
1731144241.151456,892.0059805966919,785.4256180343632,802.8082238656629,923.5778706688973
1731144241.152269,869.3912156031939,781.6173745851962,801.1570441416314,916.1927139775557
1731144241.15468,847.5278467083015,780.9101626076902,798.2182283108075,906.0856221212631
1731144241.155357,843.1943823974767,783.1879060690522,795.8518244989087,900.0450154953646
1731144241.1592577,860.1745779320989,786.8330226306432,794.853186914017,901.1945572865154
1731144241.1619864,886.2383568956632,790.2081350343121,794.9142526410603,906.5580607083677
1731144241.163159,902.3774390257672,792.7030965957487,795.3203835286325,909.5180654872406
1731144241.1670594,897.1823263663478,794.5733363845958,795.5753215240447,905.1160808210068
1731144241.17024,875.1678483634508,796.0093975079461,795.5694090656071,893.7914479461112
1731144241.1709604,852.6490135880679,796.5683166028646,795.4220523068724,880.5541619991448
1731144241.1748612,844.73790079985,795.6104662998077,795.2746906518331,870.5350912124313
1731144241.1787622,854.0303593269706,793.2475767662619,795.1892808971119,864.8743034395221
1731144241.1808486,869.8030107971251,790.7143909576199,795.1547286683412,860.4125868233289
1731144241.182663,877.7163871740847,789.6420215782159,795.1354279352599,853.2363145171993
1731144241.1858,871.6667272536284,790.829140865816,795.1074822155589,842.8343219393724
1731144241.186564,858.2432584469321,793.6243035770418,795.0669701734944,833.1882498932736
1731144241.1871448,850.6396547030228,796.4601652569959,795.0210212611632,829.7672687017429
1731144241.1904647,857.3330404125278,798.0313910790172,794.9770758907631,834.8798725992759
1731144241.1943655,874.7911605385825,798.0967272196542,794.938074919085,845.3002273843906
1731144241.1982665,890.0903613151902,797.3227448700304,794.903203221054,854.3237926953474
1731144241.1997108,891.3475928078988,796.4725824186138,794.8705558868206,856.7901379427718
1731144241.20136,877.4877296219953,795.7381714050283,794.8389647499263,853.0466500469644
1731144241.2021673,859.2099629593309,794.7408914418376,794.8083223989405,848.4801058136127
1731144241.2060685,850.082642207954,793.0468612338295,794.77905753612,848.7725195330985
1731144241.209969,854.9756618973144,790.636173660258,794.7515734107263,854.6958083634689
1731144241.21387,865.6129543867002,787.9513165943438,794.7260222063242,860.9203971221028
1731144241.21692,867.345199407601,785.6314658366904,794.702366476072,860.1286963682445
1731144241.2177708,851.7762824004251,784.2748073399172,794.6805265184496,849.2164193501455
1731144241.218573,824.6808306939695,784.3697348452685,794.6604704749826,832.4560356988159
1731144241.2216716,802.3271784284547,786.224598025578,794.6422173117766,818.9099360573757
1731144241.2220206,798.8766208643406,789.7230454312391,794.6257938371663,816.0152473270729
1731144241.2255726,815.0076089190173,794.0466464869056,794.6112007764006,824.2414365934281
1731144241.2294734,837.127734137565,797.7407954986041,794.5984230843227,836.8178899384377
1731144241.23248,848.0300556382688,799.3205552244231,794.5874841338866,844.674679455933
1731144241.2333744,840.4387236430541,798.1340845640908,794.5784989842952,842.8938838413459
1731144241.2372751,822.3475074527904,794.8742737809217,794.571647504057,833.8813565868643
1731144241.237435,809.7553608131665,791.2916548994759,794.5670100578327,824.9269476458319
1731144241.241176,812.9310533086491,789.2169045177275,794.5643305589248,822.1027326153915
1731144241.245077,827.7482793794603,789.514230209945,794.5629573498995,825.3316290839779
1731144241.24804,839.2511197558352,791.657896317071,794.5622821029476,828.557714840404
1731144241.248978,834.2880089139823,794.1963451426901,794.5626970125942,824.8371594806763
1731144241.252879,812.6622134481839,795.7538584743905,794.5663651727781,812.1865637248821
1731144241.2562976,787.7763249575573,795.8652479730001,794.5764364953453,795.4974992546485
1731144241.2567794,776.4382028421077,795.100458634149,794.5937875218373,783.1117212467088
1731144241.2568965,785.9945818794027,794.4801418449399,794.6127403071927,780.887331355539
1731144241.2606804,808.7383116628258,794.6854125134582,794.6206298711156,788.3143731033601
1731144241.2636,827.7169051668396,795.6514665777679,794.6069549702023,799.3337841690171
1731144241.2645812,829.3674100373785,796.7794012276107,794.5815247241615,806.8205408973548
1731144241.2684822,813.2998733209452,797.5137673843219,794.5871623162632,807.184161414503
1731144241.272383,791.8046573240608,797.7882346904181,794.6813016313738,801.9002773347046
1731144241.27516,779.6627966627339,797.9987885028976,794.8720369983573,795.3616827960125
1731144241.276284,782.4793604932532,798.5793424920035,795.0413916998265,791.0941306981555
1731144241.27916,792.8701903713097,799.5915772135359,794.951074715539,789.2818479618894
1731144241.2801847,797.3603840711629,800.7160774769693,794.4338729819735,787.3192546950384
1731144241.2840855,788.0892186574981,801.6546484674409,793.7451421633349,782.7642326705538
1731144241.2879865,769.6207533584461,802.5483904520794,793.7956138679448,776.2084042540118
1731144241.2917724,755.3466953465033,803.9560182582612,795.8295361251456,771.5105444859665
1731144241.2918873,756.4879372965074,806.3075446111568,800.400459693261,772.8027384938799
1731144241.2940223,772.5971548836694,809.2570041762905,806.2539197654497,780.4225555202808
1731144241.29472,791.2585448862417,811.5629614402493,810.2683086344184,789.2928398475772
1731144241.2957883,797.5144241616244,811.7861457688506,809.0877063452431,791.8094250161861
1731144241.2996893,785.8393878890492,809.3992192395907,801.6236678537883,783.69132013367
1731144241.30359,765.0519295833285,805.4190639841512,790.4863339814613,768.2509160272347
1731144241.3074908,751.6967193519966,801.9173979656434,780.8757071327756,755.0248329368064
1731144241.31028,756.7135505855694,800.6622835863723,777.3958338410389,752.9824080973905
1731144241.3113918,776.1713503588292,801.9242081907358,781.0601372393824,763.367734849985
1731144241.3128846,793.9767712972133,804.379875864217,788.7703075480018,778.2226868086962
1731144241.3152926,794.6863631844437,806.1248208634244,795.6429916147671,786.3193191953134
1731144241.3191934,776.0978380516112,805.9273558049256,798.3371705759972,781.953669645441
1731144241.3230944,751.3951546515431,803.8008089529153,796.8854083295923,769.3393822202794
1731144241.32584,739.0859633844844,800.6777554173113,793.9117932244022,758.857181344814
1731144241.3266482,748.6872203626424,797.6923211947513,792.2347081058662,758.294351227745
1731144241.3269951,773.3555079814543,795.6834693639707,792.9123341426205,766.4589183685342
1731144241.330896,795.1735897328609,795.090509654997,795.0627022834004,774.4851608920662
1731144241.3317468,798.9976823260355,795.9979638028833,797.1185433125988,773.6145025588169
1731144241.334797,784.0674996942141,798.1030524406686,798.1328542815933,762.8283500419745
1731144241.338698,764.1718398496488,800.6687282049227,798.1415473918318,749.911724185019
1731144241.3414,756.1721739411214,802.6693086109428,797.7004589378216,745.0981576280157
1731144241.342599,766.200286005051,803.1783136475212,797.2999820616662,752.6882534104417
1731144241.3464994,784.8840152752714,801.802790462939,797.1166165918758,767.6511613684747
1731144241.3504004,795.4442917882432,798.8935872779448,797.0883636404294,779.8478586580239
1731144241.3506093,787.7387659014546,795.3938556156728,797.0916200577453,782.0374102149069
1731144241.3543012,766.5789450178247,792.3961752146209,797.0542303305696,774.9294907071628
1731144241.35696,747.7582417957213,790.6330014752493,796.971453579631,765.5263266603504
1731144241.3582022,745.4324282175011,790.1641606533681,796.8705477739338,760.8267631729443
1731144241.361524,761.1819966432139,790.4329334272096,796.7755024161473,762.4316421372738
1731144241.362103,783.2480826348212,790.667082381095,796.6939053466414,766.1415320278452
1731144241.366004,796.108482882161,790.3932125175259,796.6215404479402,766.1805504893225
1731144241.3694713,792.4950864782949,789.739292380415,796.5517373285393,760.1919655577946
1731144241.3699048,778.306200357992,789.3080002486732,796.4809227677086,751.0864742419208
1731144241.37252,766.774184240291,789.6818734559342,796.4090713689377,744.6245401517843
1731144241.3738058,766.9976264111394,790.903874735929,796.3376824245398,744.8703231781818
1731144241.3777063,776.4781228352125,792.3448887943696,796.2679575863427,751.1069268158551
1731144241.3816073,783.8330469854758,793.1182950397076,796.2002031509024,758.5893268845348
1731144241.3855083,779.2178969650623,792.77701749935,796.1341316712319,762.5059690555015
1731144241.38808,763.4710713191123,791.7629465196613,796.0693615481696,761.9282653633032
1731144241.3883336,748.1126804482772,791.2171733076649,796.0056905594627,760.4860212179134
1731144241.3894093,746.0497646113156,792.2227257843501,795.9431034775607,763.2148990210194
1731144241.39331,760.6156879560086,794.9907935067382,795.8816623751821,772.2409697513672
1731144241.3964,782.0476385117515,798.5851174457267,795.8214132920934,784.8969760209544
1731144241.3972108,794.5971453057283,801.4328725956647,795.7623509281593,795.7444365363165
1731144241.4011118,788.8986715966795,802.3153172399714,795.7044207264325,800.746671480778
1731144241.40364,769.7611028502739,801.1552387549413,795.6475347830369,800.2484002300437
1731144241.4050126,752.8909590915315,799.0316219071098,795.5916043764752,798.571819247855
1731144241.407196,752.8368412659315,797.4196713314394,795.5366001423412,800.7110673218348
1731144241.4089134,771.7167856887241,797.2386207862173,795.4826150491986,808.6317456533535
1731144241.4128144,797.8941652910579,798.3930308226678,795.4298476738148,819.7686164956876
1731144241.4167151,815.6474869602342,800.0435156501147,795.3784175180602,828.6827041750272
1731144241.4192,817.6867482236944,801.276858335204,795.3280502594325,830.675032106386
1731144241.420616,810.0776793091752,801.6519507707582,795.2779146504962,824.8304350286955
1731144241.424517,805.8534411169522,801.3404971090408,795.227050044993,814.4000579088181
1731144241.4260583,813.3376611475176,800.9267682607097,795.1755485555398,804.4303567795174
1731144241.428418,829.3189381016653,801.0684538743126,795.1257757172824,798.6052620323633
1731144241.4312758,842.4063061466284,802.1524665214897,795.0819064555836,797.6407010998478
1731144241.4323187,842.9291421797058,804.0147330560882,795.0462156030115,799.9743620224647
1731144241.43476,830.6011156455447,805.8481234325988,795.0132093898188,803.5181160178923
1731144241.4362197,813.8480071720571,806.4723644862903,794.9672633711762,806.7451810340192
1731144241.4401205,802.2712789038281,804.9791793604173,794.8918476734866,808.6006022001063
1731144241.4440212,799.3784150842915,801.4195106034366,794.7922866341506,808.1534274230503
1731144241.4449203,801.7142913827057,797.000189190656,794.7168801094663,805.0098448924895
1731144241.4479222,804.1597600393073,793.513129868878,794.7433827538603,800.2856062131739
1731144241.45032,805.4984913102659,792.3080249824424,794.9041531551642,796.8547903361705
1731144241.451823,808.6623838708704,793.5263944788533,795.07622895376,797.9785374227741
1731144241.455724,815.822470044978,796.1425451650903,794.9459140848263,805.0222000532717
1731144241.4596248,823.8898805369757,798.7339274322798,794.1868670040169,816.1549486399173
1731144241.4635258,825.6803281007286,800.3632204683965,792.8411557597802,827.3527167368719
1731144241.4637828,816.3264326309002,800.9388958260835,791.5695558437244,835.0856119917155
1731144241.46588,799.0439385320919,800.9019828144219,791.3024319404806,838.5379325660509
1731144241.4661517,784.340763088575,800.6276895020047,792.3069442590325,839.5186305358216
1731144241.4674263,782.3600265117591,800.0890141376939,793.4824784687476,840.1716445282755
1731144241.4713275,794.3856884494811,799.0220986005947,792.8142906840354,840.563113994958
1731144241.4752283,810.9646086858081,797.3623967471049,788.9545072632515,838.4746614051144
1731144241.4791293,818.9585952995833,795.4937987984644,782.7094460850735,831.8429234319832
1731144241.48144,812.1523947318868,794.050660167669,777.023584522855,821.703609779029
1731144241.482645,796.4956305520006,793.4516359411826,775.1971411624095,812.6045988468583
1731144241.48303,785.1890266850958,793.6116170043974,778.5891023773751,809.4445713624829
1731144241.4869308,787.4452122858064,794.0877491798626,785.550564707705,813.0979573208664
1731144241.490832,800.3953594008844,794.4636509926306,792.3633841332173,818.8190313061133
1731144241.4947326,811.1776659357533,794.5896592861483,795.4512201980757,819.3665594501679
1731144241.497,807.690903016716,794.5427840193744,793.3789359655117,810.602066494585
1731144241.4986336,789.1463592409638,794.4594911030122,787.5561538028394,794.8572098150514
1731144241.5010276,767.5985966654473,794.419831527469,781.4543854823248,779.1358402751127
1731144241.5015073,758.9208381928595,794.4306613813989,778.7988255490351,769.7761588414529
1731144241.5025344,770.2313906596713,794.4634403650537,781.5329062930297,768.2996141945506
1731144241.5064352,793.8317800816114,794.49236003397,788.5780615473445,771.6840175560915
1731144241.5103362,812.8138131312161,794.5089487547596,796.2876422794209,775.8089252579273
1731144241.51256,814.1958938669778,794.5174917478923,800.6017619838436,778.3693738590133
1731144241.5142367,799.0534729936799,794.5250834801179,799.5890068304121,779.2978816024212
1731144241.518138,781.199744283453,794.5355939563697,794.505788179848,779.5627759306032
1731144241.5203698,775.3690982037767,794.5490891304181,788.5210626892881,779.982976373948
1731144241.5220387,784.8050034232263,794.5639583465404,784.1576738333783,780.804926239413
1731144241.5259397,798.7792818225342,794.578876214411,781.6075846243374,781.8761788063326
1731144241.52812,802.0932586386252,794.5934675353551,779.3173896057278,782.9685113530809
1731144241.5298405,788.3572483113445,794.6079993384742,776.2068630397364,783.9639163421979
1731144241.5337417,765.7569011528622,794.6228472201855,773.3625931784469,784.8656026973149
1731144241.5359037,750.6197970305609,794.6381981696059,773.470891513848,785.7269609226175
1731144241.5376422,754.402718115006,794.6540407159172,778.3496822894305,786.5896690993019
1731144241.539232,774.8826371553527,794.670284609154,786.8314334907271,787.4644068149498
1731144241.541543,798.4516349207997,794.686861197861,795.1111197393767,788.3419354611896
1731144241.54368,811.252612866454,794.7037527013866,799.50200568471,789.2103080466236
1731144241.545444,809.9707651245095,794.7209729282001,799.2779878895533,790.0639604360233
1731144241.5493448,803.6191717702668,794.7385399420903,797.0575752376626,790.9036321693338
1731144241.5532458,805.0132109756303,794.7564630936912,796.319036432237,791.7323945822543
1731144241.5571463,819.0416351746346,794.7747439395134,798.2359939644203,792.5524874790694
1731144241.5580945,837.5620227918723,794.793380087233,800.6665576948477,793.3644810018474
1731144241.55924,845.400405961263,794.812364180612,800.1711681197869,794.1679627325789
1731144241.5610476,832.7935015145648,794.8316802143103,795.1914245716905,794.9624523785726
1731144241.5649483,804.1956875519312,794.851307371216,787.5457112607389,795.747840254249
1731144241.568849,776.1168522535094,794.8712394471747,781.0177916025098,796.5243392772783
1731144241.570779,765.3313058272047,794.8915116501529,778.4214231837585,797.2922489536345
1731144241.57275,776.4910796896984,794.9122034962895,779.7131323651762,798.0517874856084
1731144241.5748,798.8337045414726,794.9333804705126,782.5765183077723,798.8030814508915
1731144241.5766509,814.7359010557348,794.9549777909649,784.6728345577889,799.5462699767205
1731144241.5769565,813.6146570550695,794.9767188604171,785.4914078163952,800.2816140635481
1731144241.580552,800.2612320313465,794.9982333962686,786.3655229807238,801.0094853176369
1731144241.5844526,790.7885517391957,795.0194685605445,788.9382330536974,801.7301588291426
1731144241.5883536,799.1642014984355,795.0411840512637,793.591919830784,802.4434950752961
1731144241.59036,825.1264342024267,795.0649227009226,799.1553650820099,803.1488316972874
1731144241.5922544,853.4927171186849,795.0918034876881,803.9373590019931,803.8455066027968
1731144241.5958188,865.7000840474036,795.120329427285,807.0138751233418,804.5340754373817
1731144241.5961554,854.3318606740949,795.1450902267084,808.6492661251292,805.2173694817449
1731144241.6000562,828.8832050864786,795.159432612981,809.6421480988716,805.8996461756594
1731144241.6039567,808.2237376250301,795.1634798285742,810.331497951304,806.5825405259445
1731144241.6056552,806.0362659832697,795.1729384810754,810.1827672450594,807.2594611750033
1731144241.60592,820.9534966543973,795.2169354498808,808.2724008440746,807.9145145627548
1731144241.607858,838.9325498717233,795.3134795366437,804.2033306739489,808.5335275459779
1731144241.6117587,845.3660266224953,795.4285444025888,798.6540906969034,809.1271952780728
1731144241.614681,836.7752818425588,795.4565478317088,793.103019933025,809.7487952433231
1731144241.6156597,822.6510212621962,795.279052387601,788.9612486941064,810.4735288016957
1731144241.6195605,816.3456921742769,794.9203178968785,786.8090285669274,811.3186814671856
1731144241.62148,823.0760695696437,794.702672200335,786.2833664727178,812.1423507201577
1731144241.6234615,835.449767520168,795.1945795208792,786.5824779906602,812.6401207040914
1731144241.6273625,840.3581719733194,796.8380616970818,787.0875606687223,812.5762677108502
1731144241.631263,831.1432982419283,799.4885528008303,787.6359047187768,812.2301071335056
1731144241.6335433,814.3141412484639,802.3310067361111,788.3691325948693,812.7112488252042
1731144241.635164,804.772975230469,804.3599179964508,789.3914773267608,815.5645715709261
1731144241.63704,813.3244499062592,805.0524126905469,790.484870038409,821.4328927061805
1731144241.6390648,836.7995431558738,804.6477184566769,791.0074150117413,828.6209624469069
1731144241.6405313,859.1693462985754,803.8170441325482,790.0758460214616,833.2296784643313
1731144241.6429658,863.2908632769974,803.077458264892,787.1211494148495,831.615366808659
1731144241.6468666,844.2868363572295,802.5009411157229,782.6474223156233,823.5624545114449
1731144241.6507676,813.8178426049168,801.9209966288283,778.5774706264737,813.2628608731162
1731144241.6524055,791.4060260535092,801.3265779453662,777.4963088605726,806.7426766811168
1731144241.6526,789.424611727839,800.9825718583805,780.8724516751254,807.4828576288918
1731144241.6546683,803.8457816616695,801.1456228826837,787.5113596421273,813.7468262491396
1731144241.658569,818.361562245517,801.6763571362673,793.835389778402,819.9291250970344
1731144241.66247,818.4127543523134,801.9517993071825,796.3094659265993,821.0147974734272
1731144241.6663709,803.3215246469404,801.2037714636194,794.2942246937987,816.6069290694892
1731144241.66816,786.4075742293393,799.0520442078869,790.8051466232508,811.1756051759581
1731144241.670272,783.2596027292668,795.8580960138352,790.204029673494,810.2284069244254
1731144241.671268,798.2614057591694,792.6475213142678,794.5623181089111,815.5648939774459
1731144241.6741726,820.6293701729999,790.6154898857868,801.7889237567016,823.6521586887656
1731144241.6754067,833.0615084904363,790.4915556409658,807.2247822628559,828.5585049576965
1731144241.6780736,825.7516145409031,792.1538572467546,807.4259238783558,826.9742146385307
1731144241.6819744,804.3203218786304,794.7423722686531,802.9255455853968,821.0046925416619
1731144241.68372,785.2548593628516,797.1847904546091,797.6270624851549,816.2770557256952
1731144241.6858754,782.6234214397531,798.772355904428,795.4248006468474,816.9284353645706
1731144241.6897762,796.9767463434819,799.436573201767,797.0774328743913,821.8081816353837
1731144241.6901302,815.5229459710049,799.633742104001,800.0537187967595,825.2863629990518
1731144241.6936767,823.2250879116341,799.985069668105,801.2819027642597,822.1269621025397
1731144241.697578,815.3731662527307,800.8867288360398,800.0791582378944,812.3146722065105
1731144241.69928,801.1933711364172,802.2658824332509,798.5417949231957,801.655936926123
1731144241.7014787,795.835297853843,803.6150135260566,799.2593932375813,797.528769041626
1731144241.7053795,807.6950522769639,804.3368843487348,802.7530659565161,803.2510061290988
1731144241.7089925,831.4122950474632,804.2089590036232,807.0664197232124,815.6103043203258
1731144241.7092805,851.8154571326361,803.5829842843135,809.6449850631627,827.3294400433662
1731144241.7102828,855.3777892638258,803.0609964156233,809.4860519115367,832.2150425716728
1731144241.7131815,840.3024815594393,802.8573791622368,807.5722311106845,828.918970463262
1731144241.71484,817.7293922018632,802.44232786998,805.4827932588773,820.8347174001766
1731144241.7170825,803.2543459844571,800.8884436050218,803.7696832985737,812.9093419799669
1731144241.7209833,805.1903389768299,797.6862041317744,801.6662693183938,808.277844355985
1731144241.724884,818.6379095967925,793.3149174509862,798.2566179194029,807.1100022950224
1731144241.7278547,830.1360775685557,789.0745324580465,793.8577977487267,807.7574815126422
1731144241.7287848,829.2116290984259,786.3536711263404,790.2355628509747,808.5423274547812
1731144241.7304,817.2487321575818,785.9176592494197,789.3600456223319,808.711817863125
1731144241.7326858,806.1000392254917,787.6260193526518,791.71433837682,808.3455279906286
1731144241.7365866,807.5233020613894,790.5813191820001,795.6057014710573,807.819494103283
1731144241.7404876,822.5059704636881,793.5167292175643,798.1480026311901,807.3985108290177
1731144241.7443883,839.7665163480852,795.2664868699028,797.2360403598813,807.1329492726818
1731144241.745159,844.8970397028731,795.1968924623733,793.0375745215952,806.9492139761504
1731144241.74596,832.5278503726487,793.4435110006198,787.9135541537426,806.7663500379631
1731144241.746717,811.2881132912055,790.8349499029501,784.8577364971826,806.5508482587885
1731144241.748289,797.2480660521314,788.5327594872972,785.5648794977172,806.3105831073968
1731144241.75219,801.0102463914311,787.5601519789705,789.4116828884233,806.066357044498
1731144241.756091,819.0090935305603,788.4180444904055,793.9718827551181,805.8315933632588
1731144241.759992,836.3865133250321,790.9150938582162,796.6822362013957,805.608218105094
1731144241.76152,839.287003385652,794.2482115311822,796.5439607567962,805.3920729281491
1731144241.763893,826.3217846408735,797.2973703084791,794.7233615626787,805.1790420888323
1731144241.7655792,809.4227968768407,799.0357944639584,793.6446196139807,804.9676575316781
1731144241.7677937,803.3032321777687,798.9063163236642,795.2014137865588,804.7585620143751
1731144241.7716944,812.5559466440537,797.0064020586252,799.3380537430553,804.5529574381482
1731144241.7755954,827.4563973545403,793.9904719631227,803.9842326134134,804.3515879383418
1731144241.77708,832.0624633506555,790.738875488754,806.3619825464345,804.1545903007342
1731144241.7794962,817.7933331083644,787.9928342065903,804.7703028761923,803.9618112484138
1731144241.7800343,791.1881635426619,786.1894920172017,799.7253385858652,803.7731234669407
1731144241.7833972,769.4605192150698,785.5711306583312,793.7903275785568,803.5885353184942
1731144241.7844417,767.3730000017442,786.3873481452022,790.1589347760548,803.4081363456208
1731144241.787298,785.8191325985135,788.9072856362527,790.7393901506056,803.232012503969
1731144241.7911987,811.1284311360919,793.1560812162738,794.9075843439607,803.0602293195961
1731144241.79264,825.7148570627407,798.6166266822045,799.8922691225138,802.8928925950022
1731144241.7950995,821.7103738672248,804.243232701993,802.7141230816917,802.7302102984339
1731144241.7990005,806.7019320674201,808.8690711286425,802.3050691417492,802.5724391172345
1731144241.8029015,796.9107439786642,811.7082381934257,800.0928399075428,802.4196568532888
1731144241.803304,803.3633012168152,812.5627788720483,798.5400939075885,802.2714858626797
1731144241.8068025,822.414176429537,811.6498378361093,798.9362200243677,802.1271179719477
1731144241.8082,838.428749900227,809.325473422687,800.4271719124861,801.9860044149065
1731144241.8107033,836.4387213404076,805.9958420566264,801.1005263970031,801.8490841557625
1731144241.814604,814.4579976834999,802.1897547188757,800.0086100542277,801.7194745469183
1731144241.8149104,785.4975063793455,798.5371304451646,798.1602288272228,801.6009058802763
1731144241.818505,767.6948576113894,795.544027834299,797.5276540050377,801.4931837520791
1731144241.8221662,770.5070518042808,793.3710899146062,799.0066715960539,801.3873342611996
1731144241.8224058,787.9726217500107,791.8856888462235,801.2653081583375,801.2670694936772
1731144241.82376,804.2701603675229,790.9667209420013,801.6273760055971,801.1228273825488
1731144241.8263066,806.850572858185,790.7294498667686,798.2983323190402,800.974657632999
1731144241.8302076,796.3151703662026,791.3793593379544,792.0147681681779,800.8824230280401
1731144241.8341084,784.9928069501159,792.7950296872418,785.6832544738431,800.9116723784107
1731144241.8380094,785.6592695453123,794.2920390717771,782.3159566022105,801.0460306849658
1731144241.83932,800.1018063413807,794.9377878713238,782.9832706625132,801.1026355434333
1731144241.8410285,817.2200668911219,794.2775668278828,786.3718556148655,800.7779528996879
1731144241.84191,822.1947025129234,792.8540380293163,790.1184787717168,799.9314382469253
1731144241.8458111,809.0410871131735,791.9649119828198,792.7102268149503,799.0136285893227
1731144241.849712,786.2208253040073,792.7448475643632,794.4592733715465,799.2184998026592
1731144241.8497863,770.6993229404748,795.3166083022654,796.8873227308587,801.8403077113553
1731144241.853613,775.0087305532343,798.758538780277,801.0497073089989,806.9231051324166
1731144241.85488,797.3183585309134,801.899508402063,806.1012597151596,812.3539451638842
1731144241.8575137,822.2789058413084,804.1728170787125,809.3222494297228,814.7188304035906
1731144241.8598907,832.302788194531,805.7421934256686,807.8749121580446,811.7556103699673
1731144241.8614144,820.9111444680719,806.8945887993225,801.2056815179054,804.4708396141448
1731144241.8653154,797.801691623875,807.4535378844527,792.1783478329984,796.9152699216511
1731144241.8692162,781.3006901390731,806.8892943229932,785.6525762785474,793.4388670316222
1731144241.87044,783.7924766495681,804.9843107205173,785.2127709177087,795.3665818651714
1731144241.8731172,801.7345746966229,802.2695345438781,790.5201638267221,799.6750121881347
1731144241.877018,818.5256043857515,799.6915311913488,797.4997732748363,800.8796202245694
1731144241.8787527,818.0691612346761,797.8183586970731,801.2705148537094,794.9961951246212
1731144241.880919,798.0261619029287,796.405500146053,799.4583739655158,782.8332723436763
1731144241.8846622,771.9684100022113,794.7856053522391,793.3822546934296,770.1418563748755
1731144241.8848195,758.6997489472722,792.7188943054389,786.5430767157703,764.2050932288116
1731144241.886,767.3907785657462,790.8812789049322,781.9675787156464,769.0513297917645
1731144241.8887205,790.521992925113,790.4866968431238,780.5065006604812,782.7584656258399
1731144241.8926215,810.2997067818762,792.3124632758148,781.0516769408905,798.9444171625845
1731144241.8965223,813.2089982503453,795.9349829644027,782.0397994292325,811.2002062774752
1731144241.8976152,800.6155286880438,799.834732046438,782.820964666509,816.8233514753856
1731144241.9004233,786.6160651922264,802.3186610414296,783.8828542688692,817.2036755762568
1731144241.90156,785.1753488235207,802.5375971223648,786.0022467040259,815.4792604993289
1731144241.904324,797.7636782319859,800.8318967159045,789.2293913552289,814.0510545551317
1731144241.9082253,812.1561242825848,798.2513088697804,792.6050179706051,813.6827241293315
1731144241.9121258,813.2382401982993,795.7788961850647,794.7993560843021,814.0154432287602
1731144241.9160266,796.337208543483,793.9104503641628,795.1083410749835,814.451090352314
1731144241.9164777,771.7553763485764,792.7635835842796,794.0129062605066,814.6685654876122
1731144241.91712,756.9202458328316,792.3739532962608,792.8627779378535,814.6684549931015
1731144241.919538,762.7454827636974,792.791960080691,792.8624566743949,814.5898738527326
1731144241.9199276,785.119823325854,793.9551304938414,794.0489509644726,814.5447415041582
1731144241.9238284,808.1658656649512,795.5940919267662,795.0773091483535,814.5633980956312
1731144241.9277294,816.7577409678511,797.3296280377369,794.177595956818,814.6221549314498
1731144241.93163,808.5079114314719,798.8351424465064,790.7272809959898,814.6888792042117
1731144241.93268,795.5165517784816,799.8748585857636,786.1506680967586,814.7478575082091
1731144241.93534,794.0997749909436,800.2516927849509,783.1449753359233,814.8002202848402
1731144241.9355311,810.6626412529031,799.8614750276801,783.609011563115,814.8535973525074
1731144241.939432,835.5242570226186,798.8792255876015,786.977223583298,814.9136089631745
1731144241.943333,850.1632482160644,797.8143939411182,790.5333495782864,814.9814639296563
1731144241.9472337,842.0628844480727,797.2087880155003,791.5825207548887,815.0556852071459
1731144241.94824,814.8975504986828,797.1622968480037,789.6428831297692,815.1345314016279
1731144241.9511344,785.8399051993791,797.1743606950656,786.7703024433617,815.2172005229602
1731144241.9542022,772.4828172020248,796.5508682575513,785.804968661427,815.3037508931493
1731144241.9544137,779.9289239788806,795.0433451168699,788.1143342376862,815.3945154041186
1731144241.9550354,797.8376695626415,793.1064166358194,792.7055534925544,815.4896722001384
1731144241.9589362,809.1751073077655,791.5256984368528,797.2568446395723,815.5891770994259
1731144241.9628372,803.6463031494488,790.7979943243563,799.9485723036089,815.6929238228371
1731144241.9638,785.4826069734811,790.8482603442112,800.4860511294218,815.8008973355636
1731144241.966738,769.5934099458757,791.2526893307045,799.7435013666709,815.913149636797
1731144241.970639,769.1223669192965,791.6341639343286,798.7666937508723,816.0295777536379
1731144241.9730644,784.4635169408868,791.8571270627888,798.1088017051034,816.1496829027419
1731144241.9745398,802.8647753578044,791.9702993451538,797.7939359102442,816.2726540545727
1731144241.9784403,809.0672043104368,792.0666286210106,797.6129359970774,816.3980483849181
1731144241.97936,798.1024344433961,792.19756324589,797.3900525384317,816.5268342137426
1731144241.9823415,779.5228429587887,792.3637789166469,797.0746783270748,816.6617470411512
1731144241.9862423,769.6228302521686,792.5434516955769,796.7019279220528,816.805534500489
1731144241.9892895,778.2172602822625,792.7186427298988,796.3219192323277,816.9568509276711
1731144241.9901433,800.7715351369428,792.8842680759026,795.9599336363515,817.1066577362267
1731144241.991927,822.0132558889572,793.0439404430995,795.61478850721,817.2410340890652
1731144241.994044,827.8952592604386,793.2027540021423,795.2746665000387,817.3548138818577
1731144241.99492,816.354367610444,793.3632595081705,794.9305624884715,817.4705858786785
1731144241.9979453,798.436847281826,793.5253242636749,794.5803059657707,817.6425541237321
1731144242.0018458,789.0213032408464,793.6877489534836,794.2260195685594,817.9195750089089
1731144242.0057468,794.7011437496773,793.8496292353958,793.8703442739939,818.2669852499693
1731144242.0096476,808.7541681214033,794.0107568074603,793.5144932372518,818.5062999245797
1731144242.01048,817.3264061209921,794.1713570041402,793.1583082277192,818.3844722026957
1731144242.010789,811.5972800277201,794.3317051755123,792.8011424306655,817.8449023507534
1731144242.0135484,795.6662624566138,794.4919306731346,792.4425471289685,817.3769417653614
1731144242.0174494,783.4916254709051,794.6520239578686,792.0824435646841,818.0494291964654
1731144242.02135,787.3342263928719,794.8119265609009,791.7209627123765,820.7895365250292
1731144242.0241654,807.1855694098462,794.971600401452,791.3582394138657,825.0438766222316
1731144242.0252512,829.9100918394305,795.1310448608131,790.994317834619,828.0227601886887
1731144242.02604,839.0401043108125,795.2902807239798,790.6291751656411,825.9692507235992
1731144242.029152,827.5978325179739,795.449330031244,790.262797169024,817.130755961483
1731144242.0296514,803.7398254681316,795.6082069963264,789.8952320945162,803.8707638603805
1731144242.0330527,784.5409328288652,795.7669195189384,789.5265709363805,791.635452480721
1731144242.0369537,782.717793033553,795.9254740595519,789.1568432498484,785.3596519386219
1731144242.0408545,797.0180369663993,796.0838780672207,788.7858911705868,786.2630253426893
1731144242.0416,814.2064770404047,796.2421388217809,788.413369497391,791.5704404325232
1731144242.0447557,820.9153591882261,796.400261516843,788.039023834669,797.1497818792398
1731144242.0485137,815.1499903906011,796.5582506838101,787.6632018725893,800.7525031061201
1731144242.0486562,807.4796717467057,796.7161166449479,787.2871627030719,803.2842995255793
1731144242.0525572,810.9253888890429,796.8738827397701,786.9124697525607,807.2840490444438
1731144242.056458,828.4773232820261,797.03158288428,786.5391372200489,814.0066159028273
1731144242.05716,849.3346143310949,797.1892400716774,786.1635721235093,821.53773871287
1731144242.0590413,857.4725554780518,797.3468320997198,785.7790322088858,825.5680167462774
1731144242.060359,845.4432408051669,797.5042776981056,785.3812712836086,822.4065992567806
1731144242.0642598,821.5185706932263,797.6614903806052,784.9780483129637,811.9514966357616
1731144242.067376,803.5903419146723,797.8185115212146,784.5938088729431,798.1435778759746
1731144242.0681608,804.4604535496454,797.9756342034294,784.2563498386282,786.3799935079795
1731144242.0720615,820.8665271504395,798.1333255077623,783.9610150808913,780.0205232956827
1731144242.07272,835.8467919345426,798.2917928186912,783.6348556931878,778.8768153960773
1731144242.0759623,832.7592214341468,798.4503524008086,783.1533950306907,780.4809699233575
1731144242.0798633,809.194551357674,798.6072558643178,782.4572162897912,782.3796783482101
1731144242.083764,779.1670921606969,798.7608342287621,781.7368667990445,783.4397292180298
1731144242.086238,762.0891495981996,798.9120444204675,781.5250099632461,783.7321386833928
1731144242.087665,767.9165427032158,799.0665771261024,782.4914319610026,783.777962272278
1731144242.08828,790.2195216782374,799.2328811256652,784.9451161587725,783.9585491846861
1731144242.0915658,811.7669168657,799.4135628150336,788.4051210970489,784.3544269270815
1731144242.0939171,817.430676247467,799.593886503809,791.6825644306027,784.8656644598382
1731144242.0954669,804.516316994319,799.7402809690647,793.5259190822309,785.3769007943024
1731144242.0993676,783.4791743357875,799.8244026338461,793.3983628207698,785.8380945958924
1731144242.1032686,769.3160564257422,799.8720018504059,791.8266613296728,786.258475987013
1731144242.10384,770.3926246266994,799.999458367821,790.0541826936026,786.6669314098401
1731144242.1051004,782.9266296578809,800.3715952249286,789.2439560992322,787.082701067009
1731144242.1071694,794.9857628029984,801.0492085451463,789.8567846329398,787.5088143440289
1731144242.1110702,796.6941966473684,801.8227062047874,791.6959264330098,787.9393993603859
1731144242.1149712,788.5326469879401,802.2338156409843,794.4739715956354,788.3683884292017
1731144242.118872,780.9842242744155,801.8638975702618,798.2069750267422,788.793383430574
1731144242.1194,785.625554945951,800.6592693814575,802.9044171328479,789.2150243454756
1731144242.1227727,804.8226986594826,798.9560779749036,807.8219591523334,789.6348184380387
1731144242.1239626,828.6202192221493,797.1700077824045,811.1706765536306,790.0536650604016
1731144242.1266737,841.7993131116211,795.4938760551491,810.9121211217686,790.4716053366686
1731144242.128793,835.8123172238503,793.9295890826022,806.252483343129,790.8882604755737
1731144242.1305747,816.0067938256541,792.5817816719579,798.6104859865623,791.303293370887
1731144242.1344757,797.8909242227099,791.833032444574,791.0507458005583,791.7165806610468
1731144242.13496,794.9370345028996,792.1519493297438,786.4080852922501,792.1281292992047
1731144242.1383762,807.7322188491922,793.6821032229774,785.5326250035133,792.5379172897929
1731144242.1422772,823.7454759390428,795.9875290443589,787.1044375644148,792.9458221255107
1731144242.142825,828.2831456277119,798.2015160364442,789.1640719363708,793.3517128031314
1731144242.146178,817.4149330310382,799.5099818329176,790.9886599597198,793.7556583404713
1731144242.150079,801.5639058931849,799.6498759447061,793.591014978959,794.1580614448928
1731144242.15052,796.3883866808017,799.0577712886279,798.3271130134516,794.5594453250258
1731144242.1539798,808.7180287148942,798.5139712124746,804.8708013302133,794.9597792194379
1731144242.1578808,829.7356812973644,798.5147780244386,810.5547077238878,795.3577307410098
1731144242.1616874,841.4579310244188,798.8835367941738,811.9849090586525,795.7508351683526
1731144242.1617815,831.353827014117,798.9889425969645,807.7714079187817,796.1375438376712
1731144242.1636689,803.1978801157994,798.4161910859523,800.0502858496405,796.520659906526
1731144242.1656826,775.2708604395139,797.4883704697506,793.3530984515538,796.9090054136515
1731144242.16608,767.0342777627136,797.1142452539691,791.574141722069,797.3125512239013
1731144242.169583,784.4783105577211,798.0253640805562,795.359670288099,797.72941924236
1731144242.173484,815.5438274445969,800.0480594551537,801.8625281650368,798.1328697804742
1731144242.177385,839.3227667057361,802.0814321997799,806.8950386123599,798.4771671911498
1731144242.1805496,841.8987482828641,802.854676952229,807.7431155060299,798.738828376864
1731144242.181286,826.2816337402634,801.8450738396101,804.6461482882786,798.9801946101902
1731144242.18164,808.6037052226816,799.5979311160332,800.1702051209468,799.3724234049312
1731144242.1851869,804.0080763196494,797.2294869214885,797.2425985974595,800.0903332849438
1731144242.1890876,814.1113761466779,795.5944902229081,797.342679033378,801.0610093513372
1731144242.1929886,826.3640399983486,794.819057082562,799.9738668436391,801.7346628239171
1731144242.1968894,825.4498648073347,794.4849622007372,803.5294671859123,801.2312409769874
1731144242.1972,806.8505088972751,794.1468246128236,806.6997087065433,799.1200386289283
1731144242.1985447,781.2222756488941,793.6488445238996,809.253142064105,796.4523455685234
1731144242.199412,766.1154679346394,793.0406821767672,811.6167348404324,795.8299126240629
1731144242.2007902,771.9763370914662,792.36876532227,813.7785902759813,799.6064124833354
1731144242.2046912,793.9128627301991,791.7028314167634,814.7102462465743,807.4288891343313
1731144242.208592,815.9058991218456,791.3678219690731,813.0558445003948,815.863794767524
1731144242.2124927,823.8573981207163,791.9752386665169,808.5757116304901,821.0638447736239
1731144242.21276,816.4918826961706,793.989623486394,802.9344889662958,821.9857563612991
1731144242.2163937,805.0510419068638,797.1268546146747,798.841886167484,820.8500992798145
1731144242.218274,802.4743573009724,800.2213606874316,798.0297202508438,820.3717172982417
1731144242.2202947,811.7733573059369,801.860705350116,799.744594627696,820.5906632531033
1731144242.2241957,823.647167471047,801.3530807477398,801.1597587011233,818.5164670240415
1731144242.2280965,825.0752887901851,799.2217301971885,799.5016393393925,811.0595180461244
1731144242.22832,811.2498318614415,796.8162967864185,794.1758515380953,798.5933654876296
1731144242.2319973,790.6908943884173,795.4038396373578,787.162942884571,785.8065766083625
1731144242.2334206,779.2592282012631,795.4902890901648,781.4469559154193,778.7602046478114
1731144242.235898,787.7592946238052,796.8010931400711,778.8578407681066,780.3044913090558
1731144242.2371364,812.8478100376616,798.7171745100798,779.0454657395153,787.5663521668554
1731144242.239799,838.532159474163,800.6574751061227,780.2221292806471,793.7799913467536
1731144242.2436998,847.5906764151374,802.1432844639976,780.8805801188741,793.3163651849047
1731144242.24388,834.4748047385023,802.7225926741532,781.0591558802845,786.0657866757782
1731144242.2476008,809.5622325186655,802.0681280680348,782.2002601885082,777.6469008532575
1731144242.2515016,790.9721725037685,800.2601735253895,785.7398564379121,775.1578452154527
1731144242.2554026,790.1490073576077,797.9129166870634,791.5137267250926,781.7470966635233
1731144242.2559986,802.8686149326034,795.87704777568,797.2759412179105,794.2154591850483
1731144242.259303,813.132082297005,794.7148367779877,799.8958584557654,805.4262837307114
1731144242.25944,806.7800917884374,794.4234250546094,797.5172812530018,809.5497323191335
1731144242.263204,783.6351553643111,794.6095309084278,791.0571864719543,806.1146342345783
1731144242.267105,758.3046624239191,794.8625983551366,783.754634320985,799.9653598162182
1731144242.2682965,749.0643345744122,794.9829667159775,778.9784589146897,797.4225832357171
1731144242.271006,763.6848881174843,794.9739576007797,777.9768575353185,801.6635292221729
1731144242.2748609,793.2931099406942,794.9200266824613,779.3712446264199,810.6530439498105
1731144242.2749069,819.0144316740001,794.8864201437602,780.7633111485221,818.9041343123031
1731144242.275,826.2641424350863,794.8889330275518,781.0367627712873,821.5653865075146
1731144242.2788076,815.5692379709674,794.9120971622319,781.3370099585051,817.7546649343686
1731144242.2827086,801.3635729197498,794.9366265406929,783.8460168787055,810.728735996476
1731144242.2866094,799.7023075383236,794.953629853569,789.4124767783652,804.9504490118563
1731144242.2905104,814.9201867220161,794.9642342509845,796.1925873896971,802.5623339127347
1731144242.29056,836.1924271937708,794.9731669091867,800.6810894369712,802.1791904210748
1731144242.293723,846.6457946788918,794.9837477790744,800.4328299153058,800.8582457949443
1731144242.2944112,837.2374322360838,794.996616868932,796.1871965106901,797.376278769972
1731144242.298312,814.0202225659237,795.0108617328456,791.4879963381588,793.9031436455797
1731144242.302213,793.2578197034406,795.025472105055,790.0017966971777,794.5605136411583
1731144242.3031723,788.687439282062,795.040026292055,792.7379072201736,801.8847331079845
1731144242.3061135,801.0354778255406,795.0546184937738,797.4561169911917,813.9137074090323
1731144242.30612,817.701616474817,795.0695051568731,800.6422722117284,824.3629024638836
1731144242.3100147,822.6396352290075,795.0848512652705,800.290218245975,826.2992476452873
1731144242.3125856,808.8491608212927,795.1006778737525,797.2334858227317,817.0796200499104
1731144242.3139155,783.9029719079178,795.1169290953978,794.1743707814909,800.9140298563389
1731144242.3178165,764.0805389944704,795.1335494535797,793.4490181114909,786.6654433090617
1731144242.32168,761.5308955363076,795.1505185980823,795.3662371120964,781.9956234552294
1731144242.3217173,774.7688974405402,795.1678462890699,798.2548407072684,788.0948051763273
1731144242.325618,790.4853052057571,795.1855510840603,799.9496302868965,799.1247764437913
1731144242.329519,795.2990422696795,795.2036402646546,799.462150715589,806.8916282298399
1731144242.3314478,787.4116389813529,795.2220988126937,797.6148937700294,807.0870909334168
1731144242.3334198,777.9733222815454,795.2408934241596,796.2782247492447,802.2201980845055
1731144242.33724,780.8302911287279,795.2599978215969,796.8567150940588,799.0362621319019
1731144242.3373208,799.510360656371,795.279433972544,799.1579261849802,802.545342122152
1731144242.3380482,822.8854540543406,795.299296303952,801.4668004780858,811.4269738950519
1731144242.3412216,833.6601621252971,795.3197045556138,801.7655191547204,818.5965019116683
1731144242.3451226,822.8423589636083,795.3406593403198,799.180015588987,816.7388276350324
1731144242.349023,797.9440300104509,795.3618800104139,794.5513733956714,804.5102318317463
1731144242.35031,777.5855247099789,795.3828359109913,789.733804992044,788.228423382077
1731144242.3528,776.575998615634,795.4031817600462,786.2659053655444,777.3664447577938
1731144242.3529243,793.8487951507674,795.4235005260521,784.519517280208,777.4303106273845
1731144242.356825,813.5316449904961,795.4456820852546,783.8891390794311,786.1989473027247
1731144242.360726,818.3830474323763,795.4719041670585,783.6108137420674,796.3967964391302
1731144242.364627,804.2142135417239,795.5018427094556,783.3521779491144,802.119663092934
1731144242.36836,783.0763747075089,795.5298176252311,783.1495252895113,803.1202662811796
1731144242.3685277,772.7589680737614,795.5459360058616,783.0233635817075,803.4382543482212
1731144242.3691723,781.8356100138224,795.5448692812125,782.8583177487113,806.3861669940251
1731144242.372429,802.8795920417479,795.5396184329104,782.6783802173123,811.1020499025575
1731144242.372924,819.0992930626162,795.5668327481234,782.8803392848304,813.8510997903123
1731144242.3763294,818.4119975057129,795.6646197955228,784.0065778759687,812.3798518054721
1731144242.3802304,803.271963671487,795.8182252653573,786.2183716218707,808.7622863551662
1731144242.38392,788.4582700533566,795.9087337083812,789.0479889275467,807.8358533449999
1731144242.3841312,788.8796285052209,795.7397036760791,791.7356675007658,812.6492540853311
1731144242.3880322,807.3869747458989,795.1956307889001,793.8256662498256,821.2270916586822
1731144242.3880346,832.4328577932208,794.4625750918076,795.4556508407215,827.8130085920196
1731144242.391933,847.35766532066,794.1010907649242,797.1523751811937,827.6800222157473
1731144242.3958335,843.6662666934822,794.7992308999587,799.4265442864663,821.3177266971229
1731144242.39948,827.5931133829956,796.8969131222818,802.500368397163,814.3086251861201
1731144242.3997347,814.9031840623792,800.0225914798397,806.1907390191708,812.9923800420821
1731144242.4036355,818.3260633754169,803.1533269930139,809.8096842864571,819.5904746794909
1731144242.4068973,837.5510083571966,805.1111533810908,812.1440505139389,830.690459005421
1731144242.4075365,859.3392556380459,805.189160220527,811.8000105827605,839.9827955455903
1731144242.4078,867.4683759351003,803.5034201654463,808.0132095015822,842.8072265799434
1731144242.4114373,855.0079126180682,800.8557260509749,801.4879131585292,839.0834217019117
1731144242.41504,829.8190342393125,798.2238078546173,794.5006460720338,832.8296276893242
1731144242.4153385,809.0800562979684,796.2331995674708,789.8746883312549,829.0110332217972
1731144242.419239,806.7060078958284,794.9488068218961,789.3356926825246,830.0959955271417
1731144242.4231398,823.0684603223665,794.076757013912,792.4181383424034,834.6444318766052
1731144242.4257593,845.004454255366,793.3690157737714,796.8239612088566,838.7518560690783
1731144242.4270408,856.2517485488831,792.8915153045871,800.0511887619582,839.1819859541248
1731144242.4306,850.107154797272,792.9518348894903,801.0876798820902,835.8301041847099
1731144242.4309416,834.2136735213134,793.7787424273612,800.8817643605855,831.6661033690873
1731144242.4348426,823.7798606214778,795.2534927875228,801.2710043881713,830.2328933602485
1731144242.4387434,828.9703843136966,796.9280750030789,803.297715510366,832.6820352148652
1731144242.4426444,846.7493598432713,798.2957991588212,806.3120904361343,836.6978093194734
1731144242.4426758,863.4594540752556,799.071260189291,808.537948692976,838.1823339205638
1731144242.4446216,865.5523307450925,799.2789925129492,808.502138720563,834.4065881029321
1731144242.44616,849.595990152681,799.1553650816503,806.0613182464972,826.146876296658
1731144242.4465451,823.8357359685045,799.0002618500022,802.2456502830065,817.0767725836852
1731144242.450446,800.937034865203,799.0763486657055,798.2328863193349,810.941527424816
1731144242.454347,788.8180744441921,799.5533882907678,794.4499593685368,808.9977996163104
1731144242.4582477,787.1084073811141,800.458245842332,790.5440657758467,809.8317839668931
1731144242.46172,790.4447123613089,801.6244172579818,786.1097013045605,811.186101274803
1731144242.462149,793.7775601810284,802.6863066603008,781.4084472059685,811.7024977186794
1731144242.4634838,795.0569648583476,803.1903014807863,777.4114886540444,811.2829967653958
1731144242.4660494,794.7225206390841,802.8458073086283,775.1589140363614,810.4582076859575
1731144242.4699504,793.9830198549189,801.7976806515522,775.023220664014,809.7057015558348
1731144242.4738512,793.6140351635129,800.6838212491334,776.5084031648188,809.1845331470937
1731144242.47728,793.7175226451608,800.3282577000592,778.74835465526,808.8183172589156
1731144242.4775517,794.0412568912135,801.2116557826089,781.287204496255,808.4774504682753
1731144242.4777522,794.3380423082725,803.1024120243108,784.4601225867808,808.0904921381282
1731144242.481653,794.5171649418872,805.1610722124449,788.9697639733963,807.6556327170958
1731144242.482346,794.6117791474645,806.4713710587397,794.9209782907607,807.2020939428552
1731144242.4855535,794.6875131764579,806.605492831866,801.1208510589861,806.7541408311203
1731144242.4894547,794.7829015208006,805.8052967707839,805.3659126400088,806.3187072790317
1731144242.49284,794.9007129487399,804.6882409829045,805.7150264572613,805.89090480532
1731144242.4933555,795.0265725312759,803.782846747853,801.9336638929567,805.4637763918738
1731144242.4972565,795.1476793471767,803.2981065999226,796.0281267343111,805.0337806649227
1731144242.5011573,795.2598683941444,803.2343803883488,791.2998134678755,804.6010142528405
1731144242.5012083,795.3652471387213,803.5607341299421,790.3532511917706,804.167033557139
1731144242.5050583,795.4672554052898,804.1544978104588,793.3455692682733,803.7330057339396
1731144242.5084,795.5677071923748,804.5836891398624,797.7955714213402,803.2991566153181
1731144242.5089593,795.666542901649,804.1463214889121,800.2618888330043,802.8651213054463
1731144242.5124276,795.7629142135154,802.380132760799,798.7667498005436,802.4304640146041
1731144242.51286,795.8561643577052,799.6585693115296,794.1442132496763,801.9949458723156
1731144242.5167608,795.9461219956767,797.1872404305633,789.259615989553,801.5585165153029
1731144242.5200706,796.0328612939643,796.1735062930334,786.7637504261539,801.1211911178723
1731144242.5206616,796.1163465280943,796.7886157105019,787.2418688768469,800.6829543667798
1731144242.52396,796.196310199485,797.890589611204,789.2045645453718,800.2437373955642
1731144242.5245626,796.2725057549178,797.8706542940491,790.7286001148059,799.8034446600082
1731144242.5284634,796.3451923333145,795.9495262469674,791.2017815290274,799.3619901595881
1731144242.5323644,796.4153843209403,792.8034358449411,791.7140050669457,798.9193141659381
1731144242.5362651,796.4842513508897,790.0042798628806,793.9208537829078,798.4753686748816
1731144242.538933,796.551492911813,788.8142391818665,798.4547140186611,798.0300773079649
1731144242.53952,796.6137277860985,789.3637266603924,804.2006017315965,797.5832986100469
1731144242.540166,796.665255663456,790.7848408898168,808.9865837402903,797.1348431264934
1731144242.544067,796.7032115336328,792.0186250101781,811.1419892223279,796.6845828675899
1731144242.5473034,796.7354333806506,792.5527974851567,810.7061780156306,796.2326134984883
1731144242.5479677,796.7832023259043,792.5616180991519,809.2900043708613,795.7793043972887
1731144242.551869,796.868073364421,792.4983440236647,808.6316853856868,795.3250172384188
1731144242.55508,796.9808396065613,792.6154006541843,809.0126786470954,794.8694638713168
1731144242.5557694,797.0540447820138,792.8426185644327,808.9186448913697,794.4111586957282
1731144242.5577953,796.9826996240307,793.0358338927663,806.3264924953006,793.947886616112
1731144242.5596704,796.7270011266513,793.2406852895067,800.5876261883241,793.4788531794427
1731144242.5635712,796.4564226240994,793.6589833794299,793.3204457952772,793.0076226533585
1731144242.5674722,796.5803187023192,794.3766804982746,787.5238157516109,792.542618316446
1731144242.57064,797.469173363199,795.1841824445708,785.5730573306776,792.0912239716772
1731144242.571373,798.8587557669362,795.7063621883372,787.6443033912931,791.6475729118979
1731144242.575274,799.374777448457,795.7199236207324,791.7545616846971,791.1834007741373
1731144242.5766575,797.0044552866153,795.3470009319445,795.3300051824124,790.659320985416
1731144242.5791748,791.0103666724706,794.9479576360385,797.0194557706245,790.0672143541018
1731144242.5821793,784.1863240291747,794.8237468205891,797.2880103092128,789.4833585838915
1731144242.5830755,782.457134686885,794.9921513256785,797.3608306964545,789.0692282298783
1731144242.5862,789.9589711720461,795.206753414696,797.5625823614091,788.9491318451845
1731144242.5869763,803.2008260501498,795.1694148093197,796.7263531171807,788.9784049947917
1731144242.5908773,811.437936166336,794.7507567626159,793.4076747183649,788.5915552932488
1731144242.5947783,805.1918413660516,794.0636431641624,787.830765070406,787.0497898390165
1731144242.5955198,785.6068076902826,793.365095651406,782.5353451172808,784.2351895956207
1731144242.5986793,765.2023896819746,792.8808739118851,780.7216818414082,781.4923556918654
1731144242.60176,758.3590732938421,792.6838375201256,783.5248721026276,781.3324016229295
1731144242.60258,769.4972222475322,792.6976556822206,788.7113817152069,785.3655412372453
1731144242.6064808,789.1676084376647,792.7911337489998,792.1816440494736,791.9772066227948
1731144242.6103816,801.4491838182763,792.8699680075246,791.1294013943516,796.5237130834411
1731144242.6142826,796.5416036132198,792.9063389195072,786.1794055002307,794.7555103704332
1731144242.614382,778.3907365388516,792.9156889927295,780.7375171374282,786.6887931087314
1731144242.6170552,761.4653242274615,792.9215302638027,778.2016885700069,777.2814544299691
1731144242.61732,759.4020534073908,792.9358676152713,779.3820904960461,772.9634897971669
1731144242.6181834,774.3838542677274,792.9581669796758,782.1343152372059,776.6913472349606
1731144242.6220844,795.4897216217335,792.9828094829553,783.3324673747798,785.6221917742309
1731144242.6259851,807.4245162213361,793.0054932740211,781.4891446746988,793.5241663670249
1731144242.6298862,802.8744531537784,793.0251692643927,777.9193363934778,796.0989170007206
1731144242.63288,788.5042542994848,793.0428432564536,775.5878950896586,794.7153205612664
1731144242.6332445,779.4098146306073,793.0597781686349,776.6693005722492,795.1604473430343
1731144242.633787,786.3150916673138,793.0765612267683,780.8425320809595,802.2682350343266
1731144242.637688,806.127700229309,793.0931256536707,785.632335944882,815.0302488720747
1731144242.6415887,823.9716030494883,793.1091691013409,788.3593431508132,826.5590167242389
1731144242.6454897,825.3068104086541,793.1244812492264,788.0196511489225,829.1437688668937
1731144242.64844,808.2539319502015,793.1390276700687,785.6778905767434,820.2917184475965
1731144242.6493905,785.9974686830261,793.1528763076425,783.3290762155781,804.9032365196088
1731144242.651931,777.2071103226688,793.1661018039306,782.3672993216227,792.0020463605124
1731144242.6521063,791.9243409743408,793.1787397753683,782.8637762226198,788.6696069780336
1731144242.6532912,823.77940823271,793.1907915685558,783.9904821332144,795.6246754134719
1731144242.6571922,854.4798594952631,793.2022492821715,785.0240987118551,807.3321203233238
1731144242.661093,867.1968038654186,793.2131157201613,786.0857768668234,816.2079039070732
1731144242.664,858.6427092949425,793.2234095828086,788.1009246934472,817.7716068902453
1731144242.664994,840.5110864436783,793.2331565294681,792.0249865654129,813.1604973421692
1731144242.6688948,829.2808885664471,793.2423715131523,797.8626579808938,807.4883919277822
1731144242.670969,832.8143955821837,793.2510435229335,804.2107749993961,805.6430336167948
1731144242.6727958,844.7777980828268,793.2591409187168,808.8138526130105,808.9074517590201
1731144242.6766963,851.2116835978757,793.2666523970385,809.9514646056027,814.8482445202684
1731144242.67956,843.2594574569273,793.2736507404152,807.7709445037557,820.0815351923336
1731144242.6805973,825.070922099028,793.2803183815472,804.5178225349797,823.2328039351564
1731144242.6844983,810.37062859054,793.2868483862205,803.2540916396672,825.5310865575709
1731144242.686807,810.9219504419661,793.2932000276603,805.7267984320729,828.7684648337467
1731144242.6883993,826.6972297887628,793.2988711552705,810.8150427907053,832.7481351031116
1731144242.6898313,845.7678428970798,793.303040130942,814.8334501415536,834.7775398737202
1731144242.6923,853.7409671126985,793.305360993636,813.8255700728618,831.8780008002275
1731144242.69512,844.8721799654023,793.3071224066564,806.4554981245122,823.7887602142088
1731144242.6962008,825.8294159463085,793.3115682313116,795.333812464455,813.852774527841
1731144242.700102,809.2595248952659,793.3218015337234,785.5075281219636,806.5962755745775
1731144242.7040026,802.8410763748667,793.33611300938,781.0526225276124,803.9610338654304
1731144242.7079034,803.3159358832875,793.3441073562435,782.4287805828391,803.7608558553685
1731144242.7086935,800.6243647499626,793.3303144559509,786.7316108484068,802.0909469267299
1731144242.71068,788.310984892383,793.2899564454048,790.4730095495569,797.5635915343427
1731144242.7118044,770.7283895794153,793.2500502097622,792.3557007378374,793.2042443838776
1731144242.7157052,760.3405179533494,793.2721689576988,793.721042715605,793.907780701414
1731144242.7196062,767.1517312587916,793.4082804784703,796.594584096752,801.6292265664582
1731144242.7216828,789.2440451997044,793.6108820293674,801.3208649038886,812.7379156060505
1731144242.7235067,812.6453722468121,793.665188386172,805.9050148701454,820.0434903184299
1731144242.72624,821.1274616931823,793.264275205012,807.5312645062778,817.8992050533021
1731144242.727408,808.479470031122,792.2862589858642,804.8810938162936,806.3250362640231
1731144242.7275558,783.6843247148684,791.1102920253395,799.29283686885,791.1153897436816
1731144242.7313087,764.7228316902617,790.6212417907058,793.8110007887915,780.045928045176
1731144242.7352097,765.4133554863838,791.7276679460755,790.9022902173077,777.9288921555449
1731144242.7391105,785.2434271742598,794.6979361830556,790.7072254307247,783.7823219117929
1731144242.7418,810.1121961880688,798.8724298126234,791.2690915077246,791.835075401208
1731144242.7430112,823.4693030219195,803.0095594448086,790.5348257574145,795.5873887301628
1731144242.746418,819.0368275080274,805.982979843081,788.3924684271581,792.1584995718587
1731144242.7469122,805.00089905776,807.302320209873,786.9194792609771,783.9467621036894
1731144242.750813,796.5062428542872,807.154569530357,788.5178626874492,776.4967719804567
1731144242.754714,802.7860317173395,806.0804256264603,793.4779758138942,774.2317288976571
1731144242.756559,819.4813854853558,804.6203874818402,799.134607127188,777.3118617297072
1731144242.75736,832.3147372727999,803.1553644359055,801.5494572539618,781.9772254898975
1731144242.7586148,829.0306377769837,801.9157900094586,798.533639290552,783.9451641521778
1731144242.7625158,809.8799438429468,801.0166832101181,791.5788481735159,781.9794519133752
1731144242.7652802,788.068785583718,800.4660137042317,785.0073783087895,778.6521648674045
1731144242.7664163,779.5806830998426,800.2108216072003,782.8654403129251,777.7097507114163
1731144242.7703173,790.3884244632417,800.2414790397218,785.9680538645597,780.3987634932663
1731144242.77292,811.4292952201412,800.6263583482499,791.4335675070334,784.1120963308567
1731144242.7742183,825.6564615730614,801.3428930338533,795.0258308370974,784.7845144049661
1731144242.778119,821.6570675487903,802.009235169084,794.3639844605494,781.0935059655058
1731144242.78202,802.8096539409548,801.8595960363222,790.4771088516,776.6463109706398
1731144242.7841425,784.4867121269461,800.1906973884834,786.6720653991989,777.8107516430316
1731144242.7859209,781.5563798237924,797.0309784713621,785.8572732884667,788.5915458594859
1731144242.78848,796.2960518589465,793.4133919932843,788.500292120473,806.7078063066034
1731144242.789822,816.393127270818,790.8431791027272,792.6248741068077,824.2905753669919
1731144242.7914343,824.5425537213632,790.2580326387517,795.5356965668739,832.9533405389934
1731144242.7937226,811.955380830345,791.3248590168308,795.7480698873794,829.473969859097
1731144242.7976236,785.1007062763956,792.7196424960396,793.719420479721,817.8289653873785
1731144242.8015244,760.465716380552,793.2064517167533,791.1176373784303,806.147097721611
1731144242.803005,751.7021809394246,792.6176455856166,789.4823722824428,800.9700875170728
1731144242.80404,759.5852581007344,791.9117480113325,789.3764257275734,803.0693526443364
1731144242.8054252,772.773776246581,792.2885042923036,790.4726184743832,807.7114726010484
1731144242.8093262,778.3418053902539,794.1422572383527,792.2019359418744,808.8925323457892
1731144242.8132267,772.9168633887457,796.7311928099649,794.2939796697196,804.1919104870138
1731144242.817128,764.9062121264941,798.7879628286632,796.8311202273927,796.5362957975611
1731144242.8196,766.0966685160364,799.5066690361158,799.8950281264291,791.5625121226107
1731144242.8210287,780.1746694482623,799.0906210750047,803.1595061725019,792.7241666938909
1731144242.8218672,798.3883234437859,798.4887127988627,805.8135290184978,798.175910627963
1731144242.8249297,806.3918883574178,798.635993838566,807.0030079516085,802.1594803380427
1731144242.8263104,796.6634169219827,799.8472862650425,806.5648619613848,799.9523729814136
1731144242.8288305,775.9303797689861,801.7730966394048,805.4081652811468,792.3123472549574
1731144242.8327312,760.8951694220852,803.8066448644436,804.9579518426312,785.4591062311272
1731144242.83516,765.1854829897821,805.5080107870883,805.8544674823607,786.1879776841228
1731144242.8366325,788.0681239776032,806.7180679422138,807.0192588677739,795.9537050759724
1731144242.840533,814.5284859487449,807.3957579462249,806.2072347572037,809.0016848389627
1731144242.8407297,827.1056947688013,807.4574255664947,801.9190807886264,816.4545820631289
1731144242.844434,819.8955493714302,806.82171399358,795.099466033498,813.1862741937346
1731144242.8483348,803.083139264707,805.5971423970217,788.9346504900473,801.8013353981756
1731144242.85072,794.2737593094351,804.1872039839332,786.6413922473185,790.4299102473827
1731144242.8522358,803.9447334615758,803.1745202484337,789.014887757953,786.2625294682189
1731144242.8561366,826.9848393512608,803.0489423804181,793.8490856570453,790.1925462121636
1731144242.8595915,846.8783724509628,803.9440175600373,797.7329902915573,796.7509922084504
1731144242.8600376,848.7370225884345,805.4953255966245,798.6143423146453,799.0031792130703
1731144242.8611865,830.7405892098706,806.8676390667234,796.918565998192,794.1752179610186
1731144242.8639383,805.3441614674806,806.9989204613141,794.5361851038642,785.536505213901
1731144242.86628,789.6966812134547,805.0793819114808,793.0265219439694,779.3328425273015
1731144242.867839,792.7738694527235,801.1105946090283,792.7320982607973,779.5336108090908
1731144242.87174,809.0375178307978,796.1784885325362,793.1293999453737,784.739383935812
1731144242.8756409,823.4122627750651,792.1007263264981,793.5898973180297,789.6934675187276
1731144242.878454,823.6034597927171,790.498671207183,793.8131836399953,790.0321069090651
1731144242.879542,809.9097788669369,791.8439386669772,793.8212646615935,786.24118706837
1731144242.88184,794.5998324105108,795.172514488633,793.7589211250781,783.4460168642102
1731144242.8834426,791.4161324879839,798.7169268494883,793.7325742465084,787.1603642051573
1731144242.8873436,803.9429562474509,800.9914064333849,793.7654457429669,798.5591065865943
1731144242.8912444,822.5090561663343,801.5163152525943,793.8304169309869,813.2579048546829
1731144242.8951452,832.1670574023367,800.7345456550713,793.8956543441194,824.5904459235594
1731144242.896062,825.1537916471386,799.4022532824378,793.9471821899082,828.5954500540456
1731144242.8973162,807.6535936167162,798.1033650321618,793.9874315343609,826.6426891839573
1731144242.8974,795.3261768508032,797.2189850218547,794.0243667672863,823.7827990407742
1731144242.8990462,800.9875155910344,797.10148428089,794.0633549274887,824.4421409362945
1731144242.9029467,824.1138543752835,798.0239739360788,794.1052939607401,829.0351517902527
1731144242.906848,850.6666763442931,799.8568457353676,794.1486008464469,834.0682668187397
1731144242.9107487,863.7192714967753,801.8723369721833,794.1916168448703,835.3896580415684
1731144242.91296,856.5181260343235,803.0426323654669,794.2336892794572,831.7745457839275
1731144242.9146495,837.3052630023943,802.6952008270364,794.2750080017817,825.9257782964393
1731144242.9161787,821.9144751701983,800.9792835112584,794.3160074892967,822.2052266311065
1731144242.9185505,820.4336333700941,798.7346761482086,794.3569546654624,823.0851001053338
1731144242.9224515,829.1907715361837,796.8901062827001,794.3978749044288,827.2197614707061
1731144242.9263525,834.654336716007,795.905848884342,794.4386738773647,830.5701130384896
1731144242.92852,825.6996074128075,795.6720049194838,794.4792735191719,829.5357104714175
1731144242.930253,803.7953745439822,795.8397221450352,794.5196706220248,823.5915031439223
1731144242.930938,782.5931495246073,796.2134200965122,794.5599142742326,815.4841202735099
1731144242.934154,777.2167267719248,796.8379083511779,794.6000378686164,809.0018103154182
1731144242.935041,791.9393248957724,797.7301203558651,794.6399941848831,806.1570344762189
1731144242.9380548,816.2865078609049,798.5553317406021,794.6796524729693,805.9990463600072
1731144242.9419558,832.9142049416117,798.6266936541673,794.718907956746,805.9432192498307
1731144242.94408,831.0846338144407,797.317102257859,794.7578816720614,804.4399277562067
1731144242.9458566,814.8319993229015,794.5610496400056,794.797045801267,802.6404536527975
1731144242.9497576,799.1373175863301,791.0042091740174,794.8370033580286,803.5229443098336
1731144242.9536583,797.4080788583568,787.676054527286,794.8777894412183,809.1725650271743
1731144242.9539032,810.8070642759855,785.4876473228617,794.9180753309524,818.6323251970099
1731144242.957559,828.1475779411753,784.9415304294735,794.9553013400192,828.3237824263948
1731144242.95964,835.9151867172116,786.1374595784664,794.9877754773822,834.7940916571665
1731144242.96146,829.6476998569183,788.8583984395614,795.0182942597472,837.5000608796709
1731144242.9653609,817.3276491712633,792.5553384267382,795.0560415081443,839.2631440744452
1731144242.965814,812.4433535876567,796.3106110836617,795.1117205214889,843.8887458015856
1731144242.969262,822.7121763446717,798.9958031956988,795.1840183026526,852.7015683341424
1731144242.9727654,843.5891822324977,799.6908397299021,795.245574888352,862.7516083978821
1731144242.973163,861.6721288984077,798.1607559889878,795.2481805614791,868.4410702887793
1731144242.9752,865.3369036677287,795.0612023470364,795.165100119274,865.7954928350117
1731144242.9770637,854.2221881448781,791.6771461562603,795.0580878832368,856.2148864983338
1731144242.9809644,839.8422984417958,789.3012822008191,795.1039347517891,846.3630949570827
1731144242.9848654,836.4506984568318,788.6166952909385,795.4867585703729,843.6337002695709
1731144242.9887662,849.2387156254157,789.458813379811,796.1298567392754,850.4517291949028
1731144242.99076,869.503731344952,791.0622090121747,796.4297577775209,862.090816834434
1731144242.9916277,881.0530461302467,792.5611134569631,795.3378783414738,870.0441210156383
1731144242.992667,872.9970946437983,793.3944198225093,792.0224627949888,868.4112404875201
1731144242.996568,848.7479222998028,793.4330244875317,786.7841602008689,858.2931290045464
1731144243.0004687,823.9176740983877,792.89134418489,781.3519036198071,846.8943913087307
1731144243.0006895,814.621245992849,792.1801918414608,777.9781999748786,842.2526843656144
1731144243.0043695,825.3683599915147,791.7885424615317,777.897252144188,847.6834231190631
1731144243.00632,846.107075206821,792.1797814755545,780.504233095378,859.8661467936273
1731144243.0082705,860.6792095268357,793.6524362008695,784.0412457411222,871.5523867179778
1731144243.01049,859.7647565130197,796.1578361500494,787.1288991496032,876.5642145186761
1731144243.0121715,847.7554570355869,799.1608484797393,789.6456125614596,873.3765516371889
1731144243.0160725,838.0212632419208,801.7067450616948,792.1161504814618,864.9298517169973
1731144243.0199733,840.7619786156006,802.7986546963248,794.3131351001061,855.3498350100846
1731144243.02188,853.9226063368429,801.9510379664316,794.6657284398106,846.637721659561
1731144243.023874,864.9728489571055,799.5453125711036,791.3537768495763,838.151095588406
1731144243.0277748,861.9383153366871,796.6670217447269,784.2645047699207,828.9971886971769
1731144243.0293522,844.1464107562164,794.4971173862651,775.9500235785528,820.7411224569495
1731144243.0316758,823.4897015828069,793.7122366113717,770.4137259254121,817.5459345732882
1731144243.0355654,815.031910650716,794.3164372791384,770.4125111182703,823.1809619716344
1731144243.0355766,824.5882765465763,795.9022518608836,775.3509387649993,837.19563804417
1731144243.03744,843.4391478254549,797.976343578402,781.5404767905853,853.6019609925623
1731144243.0394776,854.742990369725,800.0549638696691,784.7987038259339,863.7454004708625
1731144243.0433784,846.8551101306641,801.6007866892674,783.4755979175397,861.7690009707326
1731144243.0472794,822.929143645969,802.0788040739787,779.5505622203914,848.6740815792692
1731144243.048215,798.7916954403405,801.2332083881738,776.9142249712335,831.6415287277498
1731144243.05118,790.4877852753713,799.3721170565643,778.2313345530443,818.8698218368055
1731144243.053,801.5240085056303,797.3566806250511,782.9552877421622,813.8691853213146
1731144243.055081,820.2634026742973,796.1991238249858,788.0540252668284,813.6739863480534
1731144243.058982,829.5397406103598,796.4742824214308,790.6687162630973,812.2025546533483
1731144243.062883,820.4349184246072,797.9215290957457,790.3473776940236,805.7577619699022
1731144243.0667837,798.9304227523716,799.5501515537502,789.0434408590653,796.0529582000282
1731144243.0670767,780.3522128146731,800.2590347325079,789.1252490396539,788.4209691655602
1731144243.06856,776.5872370978872,799.5961049137635,791.2772371306851,786.9109559506793
1731144243.0704412,786.5430613909335,798.1137189171454,794.0307726809525,790.3993274612484
1731144243.0706844,797.2907144621184,797.0239061822986,795.1111644943385,792.9025393125102
1731144243.0745854,794.7610663574383,797.3758875070882,793.322066177031,787.9820758676001
1731144243.0784862,775.4383983827634,799.3539288299246,789.4546655205035,773.9858206170048
1731144243.0823872,749.6627725331916,802.2052900406894,785.6645727477415,756.0737049311388
1731144243.08412,733.6880864436272,804.8144280180416,783.9756116744908,743.1787314376384
1731144243.0859392,736.7675599941724,806.4389826316906,785.0938381315881,741.8469095212805
1731144243.086288,753.8354961599649,807.0263339307345,788.2677101012532,751.4593019737304
1731144243.0901887,769.7946478412371,806.9160956844611,792.0292433837211,764.483911795166
1731144243.0940895,771.5720202173314,806.277257198428,795.1005442772405,771.6112111061759
1731144243.0979905,757.6241471876646,804.8587287594065,796.9042982036328,767.9083719926477
1731144243.09968,737.3572357870582,802.3310648996356,797.6154781844707,755.526220934506
1731144243.1018915,722.2803434391041,798.9112996971648,797.951095558336,741.3857426395484
1731144243.1048014,717.5819130351906,795.6223474299029,798.7893650986674,732.0809690710923
1731144243.105317,720.7814504375684,793.7933963989401,800.6274966837495,729.8829054369419
1731144243.1057923,726.3226365916705,794.0835317902986,803.1094307888674,732.3169893891217
1731144243.1096933,730.3587414405889,795.8216482361646,805.0858782318445,734.9111578828247
1731144243.113594,732.1490952722158,797.3044490211677,805.3961759399263,734.6431131180464
1731144243.11524,732.7686525374963,796.9393265792218,803.8385403720947,731.5797644459295
1731144243.1174948,733.4069012901781,794.3839183527716,801.3967133125553,727.9357676403436
1731144243.1213958,734.5612406471013,790.7842878871776,799.3635835047602,725.8611558021323
1731144243.1236637,736.1214526010041,787.9272066209038,798.1406360225888,725.9788969337762
1731144243.1252966,737.7852607826792,786.9834638161062,796.9702452604427,727.5365221926983
1731144243.1291976,739.3568215042636,787.7897954214077,794.9845376793835,729.4411562382902
1731144243.1308,740.8084798010754,789.1193381827001,792.5275373200665,731.0474349422151
1731144243.1330984,742.2022133301491,789.6191264495319,791.2780442363295,732.2766822841452
1731144243.1369994,743.5998607019437,788.6931554374203,792.8405033896782,733.3335995469753
1731144243.140193,745.024624444172,786.800698289505,797.062855298177,734.4137858307395
1731144243.1409,746.4686682429509,785.1276871455794,801.7546009642193,735.5857801533065
1731144243.142526,747.9157799455753,784.9411934842926,804.26741224895,736.8204271113982
1731144243.1448011,749.3563497204129,786.9770306634806,803.6878265382016,738.0647640416453
1731144243.14636,750.7896862708234,791.0760408669594,801.7403876313746,739.2887302469812
1731144243.148702,752.219443384404,796.1751714949687,801.5095382922018,740.4909612078228
1731144243.152603,753.6489427622257,800.6937471268171,804.9174773050494,741.6833605773168
1731144243.1565037,755.07937470673,803.2170680430502,810.9910546344511,742.8761852127836
1731144243.1604044,756.5103600435024,803.1683809492513,816.3748031039761,744.0726684049428
1731144243.1613882,757.9411758046078,801.0765507561297,817.7737302276475,745.2711018395023
1731144243.16192,759.3715002317398,798.2520989296787,814.4779835615143,746.4688223682657
1731144243.1643054,760.8014854508606,796.062808412338,809.0118244215087,747.6645263303728
1731144243.1682062,762.2314955709758,795.2557323896224,805.3306174466838,748.8584189472822
1731144243.1721072,763.6618646858461,795.7184243435748,805.8666498095179,750.0513399284386
1731144243.1750689,765.092815083175,796.7625349084464,809.6980431335952,751.2439954473331
1731144243.176008,766.5244959766989,797.666484113642,813.3236849917835,752.4367155252653
1731144243.17748,767.957049719494,798.0783166790202,813.458423571449,753.6295881919882
1731144243.1799088,769.3906467962448,798.057914360693,809.5961135717605,754.8226708852245
1731144243.1802506,770.8254825546545,797.8547615653933,804.2929974232889,756.0161026859486
1731144243.1838098,772.2617576646034,797.6731464414785,801.0468626918228,757.2101051893633
1731144243.1877103,773.699667051701,797.5815147859254,801.611673341579,758.4049380393134
1731144243.1916115,775.1394096647829,797.5508043226952,804.9225768830154,759.6008651184638
1731144243.19304,776.5812125769306,797.5293832372378,808.3032077397553,760.7981435250149
1731144243.1955123,778.0253435912124,797.4885617409382,809.6676668449273,761.9970180815689
1731144243.199113,779.4720792540913,797.427558926758,808.7477106099868,763.197707357075
1731144243.1994133,780.9216200153741,797.3581148813638,806.4961626437027,764.4003937255799
1731144243.203314,782.3740088734748,797.2900258310142,803.5834584544479,765.6052524404382
1731144243.2072153,783.8291767978757,797.2261327068235,799.625304378636,766.8125397039927
1731144243.2086,785.2872158318822,797.1645103544292,793.8772436339094,768.0226916433654
1731144243.2099447,786.7487834905398,797.1023858250395,786.5962746870285,769.2363013663253
1731144243.2111158,788.215223918243,797.0383522378717,779.5850962896587,770.4538419881089
1731144243.2150166,789.6878536437474,796.9724669709464,775.2031644819218,771.6751994756518
1731144243.2179751,791.166341898995,796.9053792167126,774.6230164553568,772.8994419937941
1731144243.2189176,792.6473387009273,796.8375854785461,776.9361920890158,774.1254751639178
1731144243.2228184,794.1256733295523,796.7692051987282,780.01585039932,775.3538059538789
1731144243.22416,795.5997902304837,796.7001200643263,782.3823109760748,776.588321277128
1731144243.2267194,797.0791408067465,796.6301825641214,784.3114178698042,777.8355146301421
1731144243.23062,798.5853797635945,796.5593241485661,787.1662830427665,779.0988991387353
1731144243.2345212,800.1374078489341,796.4875529926401,791.7122382448105,780.3703430153147
1731144243.2368374,801.7205750842797,796.4149059882369,797.137970438504,781.6268407885874
1731144243.238422,803.2638000902786,796.3414108042045,801.6741079694378,782.8446266825975
1731144243.23972,804.6683632950411,796.2670748420605,804.0394916175749,784.0331257229903
1731144243.2423227,805.9150512632484,796.1918911169007,804.262336180887,785.2657265453198
1731144243.2448206,807.1977921768264,796.1158475083968,803.3110357020547,786.6584975939447
1731144243.2462237,808.9245354719786,796.0389348219969,802.1941151375509,788.2589547416858
1731144243.2501245,811.4076129881988,795.9611557211134,801.4029198403114,789.8879447787172
1731144243.2540257,814.2806238549763,795.8825331641164,800.9305977516436,791.1044175263806
1731144243.25528,816.1231571536302,795.8031072451159,800.5705415388744,791.5138153217771
1731144243.2556996,815.1035794877437,795.7229066154806,800.1626511777984,791.4476005319524
1731144243.2579262,811.0220851368305,795.6418990856274,799.6679045512981,792.5799641899845
1731144243.2618272,807.537299320591,795.5599643045568,799.1240347851256,797.6911977329321
1731144243.265728,811.6239003145585,795.4769578622625,798.5782856430092,809.1732125557918
1731144243.269629,828.4379360383937,795.3928957356135,798.0524894261988,827.0106555115005
1731144243.27084,854.8634793858183,795.3081511088704,797.5439097804311,847.7758916841391
1731144243.2735298,878.6791687167097,795.2233939271943,797.0409472441128,865.705213001567
1731144243.274562,886.304821135357,795.139019605841,796.5354252732851,875.5396802731029
1731144243.2774303,873.5900172729242,795.0542195656866,796.0257315356391,875.5508247124471
1731144243.2796965,850.3922964444091,794.9665695986772,795.5140663638851,868.8191202480085
1731144243.2813315,834.5193353525575,794.8734215202655,795.0028777703989,861.7171348909582
1731144243.2852323,839.2080058148907,794.7754676328498,794.4931744502313,860.2994410041507
1731144243.2864,863.4721431566105,794.6801799208783,793.9847001919128,866.8215852295307
1731144243.2891333,892.6277155228871,794.599962049628,793.4767994813552,878.718830369873
1731144243.293034,908.7903736259219,794.5406985757904,792.9690393035014,890.7417748947923
1731144243.293424,903.6617920584245,794.4846446875205,792.4613373753963,898.608588743828
1731144243.296935,884.0402359570054,794.3851322639255,791.9537977369864,901.3521229287894
1731144243.3008358,865.8808571698637,794.1968018168606,791.4465232039645,900.6690507764753
1731144243.30196,861.5867229985599,793.9455816758101,790.9395357889906,898.2086172011701
1731144243.3047369,870.639066663545,793.7926209414921,790.4327948250133,893.5583921860386
1731144243.3086376,881.0446561028231,794.0010878081105,789.9262470258396,884.9663047455387
1731144243.3122866,880.2319877147228,794.755612286535,789.4198577283163,872.1746867303405
1731144243.3125384,866.2045662050648,795.9468954875578,788.9136092232139,858.5704753797298
1731144243.3145723,849.5490699245235,797.1495479972384,788.4074790162495,850.1964377707277
1731144243.3164394,844.5298862399717,797.8697252349207,787.9014223479655,851.8113920572139
1731144243.31752,856.6581831038964,797.8710521095081,787.3953823821763,862.9247094274457
1731144243.3203402,877.2352334624392,797.3509449077907,786.8893354930772,877.2103443436131
1731144243.3242412,889.7656739576469,796.8918580578228,786.3833440357853,886.3224798863745
1731144243.328142,883.2456633514252,797.1851616011124,785.8775493279619,885.6108308132377
1731144243.3311489,861.3312426116718,798.5643945113352,785.3720389359772,877.4278730947146
1731144243.3320427,839.5727125344222,800.5682807002548,784.8666172476587,869.3308550426248
1731144243.33308,832.8722975070414,801.9341369568132,784.3606854358918,868.42033618642
1731144243.3359437,843.6216111584898,801.2524574744907,783.8535499326525,876.1450395242507
1731144243.3398445,860.3573379064615,797.9723780673024,783.3452786538045,887.5377850295716
1731144243.3437457,867.7732743637656,793.0123106367869,782.8375864926903,895.2891598202717
1731144243.3476462,859.4359363143901,788.405343264115,782.3335016842716,895.2540954462985
1731144243.34864,842.6633220906218,786.131808926919,781.8346810316955,889.0427773983573
1731144243.3494482,831.9107992365842,786.9366717685488,781.3371581971538,881.9298260603873
1731144243.350011,836.4367703617677,789.9408993446946,780.8296274628316,878.1454420449043
1731144243.3515472,852.3449330897012,793.2679028044221,780.300122089386,877.5378535756878
1731144243.355448,865.3907070433042,795.2188594644119,779.7525174204366,876.2225258900676
1731144243.359349,862.382971139163,795.2186973127789,779.2219096331379,870.4491369390739
1731144243.3632498,842.0973144128538,793.962817565016,778.7650488838584,860.2889431511578
1731144243.3642,816.7519257342425,792.749838375733,778.4067236698033,849.9574375429813
1731144243.3671508,802.5895545441177,792.5278117158781,778.0618533203069,844.4486971018151
1731144243.3688734,807.154547418666,793.3431205462628,777.5150825693371,845.3110535375062
1731144243.3710515,823.7582759016509,794.5288272748965,776.5661713119341,849.1931915556931
1731144243.3749523,837.6248137044494,795.3641938557139,775.3569941532909,850.5100035655698
1731144243.378853,838.3416188104488,795.5959316691204,774.66795767414,846.0773476089644
1731144243.37976,828.0281687965381,795.4463744355094,775.7808255740292,837.8026762717647
1731144243.382754,818.5005000032562,795.2685618715353,779.6782799294718,831.0770032326756
1731144243.384324,820.1760192548511,795.2548807895605,785.9732315239968,830.1642685288735
1731144243.386655,832.4084255456,795.3957566161268,792.508223644101,834.527097004986
1731144243.3877356,843.6344104821665,795.593804167406,796.3213927960122,839.3288357254718
1731144243.390556,841.3748480403065,795.7724822880916,795.6129293060061,839.7870398240946
1731144243.3944569,823.6595781590775,795.9113074839768,791.3042071120506,835.6022516572106
1731144243.39532,801.888778134755,796.026462020773,786.7620864319719,831.4175681151838
1731144243.3983576,792.1180981522135,796.1397110946763,785.543388410374,832.6576959479411
1731144243.4022584,801.7142666333058,796.2616070102735,788.7172294309521,840.29954867992
1731144243.4061594,822.6778220189833,796.3912932261206,793.9308867592858,849.2669321448907
1731144243.406598,837.535153649054,796.5235542838457,797.1386789573879,852.0304020574574
1731144243.4100602,833.0957640356977,796.6545714000532,795.7429819605211,844.4709979835045
1731144243.41088,810.8479453657216,796.7835242047106,790.6906976033126,829.2308133389197
1731144243.4139612,785.7825553526756,796.9114058171767,785.8897493855937,814.0035673198514
1731144243.417862,774.9358991600616,797.0393803797136,785.4252620330315,806.2508602632824
1731144243.4192,784.8051518802504,797.1679701569898,790.6977584339786,808.3196768098733
1731144243.4217627,807.111405773517,797.2971071534517,799.5501836114207,816.316136007367
1731144243.4254603,825.6707368148158,797.4265241115063,807.8974450634039,823.2473755105437
1731144243.4256637,828.8262936349532,797.5560470613979,812.5738819361533,824.026156161515
1731144243.42644,817.9290333019561,797.6856626152758,813.3268655058531,818.8000183437135
1731144243.4295647,805.4163720753586,797.8154461381897,812.5664855226815,812.331981339735
1731144243.4334655,804.0682583665183,797.9454748499738,813.13159490827,809.9778013159334
1731144243.4373662,816.1732062152961,798.0757890441946,815.8215494641728,813.3021774857111
1731144243.4412673,831.6854158987954,798.2063991188131,818.6612038465462,818.7111414078121
1731144243.442,837.0587996969703,798.3373088836,818.5364592357628,820.216589024373
1731144243.4443226,827.2293608087086,798.4685310325941,813.9130833552168,814.1981613731973
1731144243.445168,810.3256191625622,798.600086791472,806.3921451400763,802.3684903389244
1731144243.449069,800.884357530391,798.7319943711121,799.7201419957966,790.5072075513505
1731144243.4529698,807.2449523116204,798.8642576667755,796.9335463571655,783.9036141029104
1731144243.4540758,823.809718354814,798.9968688035831,797.92820783172,783.1529804146134
1731144243.4568708,834.8568862129507,799.129832563116,799.5353476068516,783.7591733168413
1731144243.45756,827.093091400228,799.263202215665,798.196129940033,779.9631074413845
1731144243.4607716,800.9051482269548,799.397089427161,793.0979449160686,769.7386671126113
1731144243.4631848,771.0228794597297,799.5316008571778,787.0744665756843,756.8414171540157
1731144243.4646723,755.5502253321206,799.666697654727,784.3348256712036,748.1359029515838
1731144243.468573,761.82093233747,799.8020802461376,786.8319866861689,748.3280551720061
1731144243.472474,780.6376732543483,799.9372992296526,792.4180186107285,756.4218013549993
1731144243.47312,794.0019273485412,800.0722307426178,796.5170327849946,766.7596645944944
1731144243.476375,790.1899180493987,800.2077085380552,795.9770685778782,773.6218295595485
1731144243.480276,773.5549910283752,800.3456017723754,791.7743808578042,775.4574482523234
1731144243.482047,760.7387748285115,800.4874901505805,788.1849479222957,775.3600120718881
1731144243.4841769,766.4971688099782,800.6320015688478,789.0915635289992,777.6801888736985
1731144243.4880776,791.0145950382563,800.7729076582033,794.5569910916099,783.7647097247406
1731144243.48868,819.1032704560688,800.9017491823291,800.5682844810426,790.3224452763744
1731144243.4889517,831.8011672129327,801.0171778809203,802.2107869600939,791.7422152994814
1731144243.4919786,821.0194570943088,801.1363261047404,797.6875922069738,784.617025615788
1731144243.4958794,795.7043055145625,801.2943106444408,789.8648847977638,770.9856564670371
1731144243.4997802,774.7722226523166,801.5166806803151,784.0200853119933,757.65472379846
1731144243.500909,772.4776686311712,801.7684455999846,783.6392907615533,751.88796256095
1731144243.5036812,787.845455059959,801.9210950353552,787.8054669712535,756.5710732032752
1731144243.50424,806.5032584446304,801.7970344113105,792.3614206214494,768.4058218699256
1731144243.507582,813.1043004975654,801.2878643957081,793.6990837265257,780.3591331680752
1731144243.511483,803.8469478667623,800.4351010417531,791.7259082478855,786.4008345880192
1731144243.5153835,788.7719345814546,799.3757016428665,789.4479839919383,785.0399676609231
1731144243.5192847,782.3848584071749,798.2229448997495,789.8131258215923,779.3498526523132
1731144243.5197716,790.9419715571333,797.0464797956431,792.8854879260548,773.9361856787295
1731144243.5198,807.1040603889043,795.988337033477,795.8708422649361,771.4602494593521
1731144243.5231855,816.0944151982477,795.3693531407453,795.7518155291158,771.3464987450751
1731144243.5238276,808.026366397922,795.6178215191042,792.0365167654708,771.3425053138916
1731144243.5270865,786.3807642325268,796.9999857074422,787.2615268361466,770.2566219028156
1731144243.5309873,765.8785525293217,799.3117593189552,784.9741027507201,769.2999207013069
1731144243.534888,761.2806397553212,801.7706373385066,786.982302542109,770.7466285591298
1731144243.53536,775.6931450748641,803.2689810328094,792.0751511715605,775.1195711756247
1731144243.5386338,797.5514781724647,802.9299496377544,797.0722138422443,779.6746985670806
1731144243.538789,808.9982869344204,800.6502576625315,799.2083261954352,780.0359276553975
1731144243.5426898,799.5164746973063,797.2288970241675,797.9590419733635,773.99595718171
1731144243.5465908,774.258865666279,793.9353508942531,795.0375978400349,764.2411520832969
1731144243.5504916,750.3600745169337,791.8235162019555,792.8120993205181,757.2819205002698
1731144243.55092,743.9564154001137,791.3099807137332,792.5431668924372,758.9257092754314
1731144243.5543926,758.0986515355969,792.2457936184245,793.7560509248073,769.6354419393183
1731144243.5574963,780.9859894497488,794.2260714664018,794.9659196320671,783.498498698345
1731144243.558293,795.6313706568867,796.7593200414719,794.9405873809316,791.9339584851272
1731144243.5587034,793.0927525897367,799.2634097046482,793.5407837058539,789.6665186991243
1731144243.562194,778.8694628691803,801.1726283734704,791.7549604125708,778.5823569885216
1731144243.566095,767.6706861253509,802.27518504539,791.0953332871691,766.4066939115338
1731144243.56648,770.9930350122261,802.9486627569943,792.6842869231722,760.9974235256142
1731144243.569996,787.6330846801161,803.8591350560818,796.3974219750978,764.61817054166
1731144243.573897,804.8594301024253,805.208525532282,800.5606951683766,772.7902008185898
1731144243.5763586,809.1898535688971,806.2309580824993,802.6362641870559,778.6540501796999
1731144243.5777977,797.6564661151574,805.5791152327472,800.7440476763493,779.10020696987
1731144243.581699,779.9889006122647,802.4261383538401,795.0789552346434,777.3530805362104
1731144243.58204,769.9205571749654,797.3413191973444,788.1070520173371,779.7566233819762
1731144243.5855994,773.2139529013124,792.1038441632148,783.2186042560458,789.6052857511086
1731144243.5895004,782.7941414144576,788.5327932894783,782.6919133073517,803.4801380022683
1731144243.5934012,785.13954233973,787.2693845838481,786.3857320065172,813.3629596486883
1731144243.5935793,772.3673886505975,787.4869332940968,792.0527397493843,812.7987065703585
1731144243.5952208,749.6926147197438,787.7329583940317,796.9573003428725,801.9852456347178
1731144243.597302,731.9399237959844,787.187323647271,799.5241628055691,787.6887333123275
1731144243.5976,731.8757672976418,786.2870330563494,799.8143403462512,778.1796141296443
1731144243.601203,749.8090935128603,786.2043172696117,798.704237851045,777.2787426652948
1731144243.6051035,772.9819229772168,787.6641967033689,796.8098227714584,782.1126691083493
1731144243.6090047,785.4872468998398,790.189291495055,794.3228954481164,786.1212956494542
1731144243.6129055,780.8607602516215,792.463571227986,791.8162565369621,784.7018152551663
1731144243.61316,767.0571742754146,793.4417052344461,790.8543280503518,778.8641976030535
1731144243.6140833,759.565279556595,793.1478478317862,793.2985948333006,774.0309422673423
1731144243.6168065,768.2136127982585,792.4973687041501,799.6099265826476,775.2068103555054
